%OpenBCI Raw EEG Data
%Number of channels = 8
%Sample Rate = 250 Hz
%Board = OpenBCI_GUI$BoardCytonSerial
Sample Index, EXG Channel 0, EXG Channel 1, EXG Channel 2, EXG Channel 3, EXG Channel 4, EXG Channel 5, EXG Channel 6, EXG Channel 7, Accel Channel 0, Accel Channel 1, Accel Channel 2, Other, Other, Other, Other, Other, Other, Other, Analog Channel 0, Analog Channel 1, Analog Channel 2, Timestamp, Other, Timestamp (Formatted)
238.0, 17330.827394822525, -46695.65519042673, -5038.262014181854, -14153.482217011717, -636.2200541758602, 0.0, 0.0, 0.0, 0.0, 0.0, 0.0, 192.0, 0.0, 0.0, 0.0, 0.0, 0.0, 0.0, 0.0, 0.0, 0.0, 1.6863613914120975E9, 0.0, 2023-06-09 18:43:11.412
239.0, 17334.04604602409, -46693.50942295902, -5040.944223516492, -14138.99828660468, -637.292937909715, 0.0, 0.0, 0.0, 0.0, 0.0, 0.0, 192.0, 0.0, 0.0, 0.0, 0.0, 0.0, 0.0, 0.0, 0.0, 0.0, 1.6863613914121225E9, 0.0, 2023-06-09 18:43:11.412
240.0, 17329.218069221744, -46692.9729810921, -5039.871339782637, -14141.144054072389, -639.4387053774244, 0.0, 0.0, 0.0, 0.0, 0.0, 0.0, 192.0, 0.0, 0.0, 0.0, 0.0, 0.0, 0.0, 0.0, 0.0, 0.0, 1.6863613914121299E9, 0.0, 2023-06-09 18:43:11.412
0.0, 0.0, 0.0, 0.0, 0.0, 0.0, 0.0, 0.0, 0.0, 0.0, 0.0, 0.0, 192.0, 0.0, 0.0, 0.0, 0.0, 0.0, 0.0, 0.0, 0.0, 0.0, 1.6863613914889877E9, 0.0, 2023-06-09 18:43:11.488
1.0, 22911.968578334876, -45075.600752306076, -12425.066521771732, -23018.184067986498, -637.8293797766423, 0.0, 0.0, 0.0, 0.026000000000000002, -0.024, 0.996, 192.0, 0.0, 208.0, 255.0, 64.0, 31.0, 32.0, 0.0, 0.0, 0.0, 1.686361391505978E9, 0.0, 2023-06-09 18:43:11.505
2.0, 22906.604159665603, -45075.06431043915, -12411.119033231622, -23003.16369571253, -638.902263510497, 0.0, 0.0, 0.0, 0.026000000000000002, -0.024, 0.996, 192.0, 0.0, 0.0, 0.0, 0.0, 0.0, 0.0, 0.0, 0.0, 0.0, 1.6863613915089552E9, 0.0, 2023-06-09 18:43:11.508
3.0, 22910.895694601022, -45075.600752306076, -12405.754614562347, -22998.335718910184, -636.7564960427876, 0.0, 0.0, 0.0, 0.026000000000000002, -0.024, 0.996, 192.0, 0.0, 0.0, 0.0, 0.0, 0.0, 0.0, 0.0, 0.0, 0.0, 1.6863613915129595E9, 0.0, 2023-06-09 18:43:11.512
4.0, 22916.2601132703, -45076.67363603994, -12419.70210310246, -23011.21032371644, -637.8293797766423, 0.0, 0.0, 0.0, 0.026000000000000002, -0.024, 0.996, 192.0, 0.0, 0.0, 0.0, 0.0, 0.0, 0.0, 0.0, 0.0, 0.0, 1.6863613915169897E9, 0.0, 2023-06-09 18:43:11.516
5.0, 22910.359252734095, -45073.991426705295, -12437.941126577989, -23016.03830051879, -639.4387053774244, 0.0, 0.0, 0.0, 0.026000000000000002, -0.024, 0.996, 192.0, 0.0, 0.0, 0.0, 0.0, 0.0, 0.0, 0.0, 0.0, 0.0, 1.6863613915200484E9, 0.0, 2023-06-09 18:43:11.520
6.0, 22909.28636900024, -45070.77277550373, -12433.64959164257, -22998.872160777115, -638.3658216435697, 0.0, 0.0, 0.0, 0.026000000000000002, -0.024, 0.996, 192.0, 0.0, 0.0, 0.0, 0.0, 0.0, 0.0, 0.0, 0.0, 0.0, 1.6863613915239525E9, 0.0, 2023-06-09 18:43:11.523
7.0, 22906.604159665603, -45070.23633363681, -12419.16566123553, -22995.65350957555, -636.7564960427876, 0.0, 0.0, 0.0, 0.026000000000000002, -0.024, 0.996, 192.0, 0.0, 0.0, 0.0, 0.0, 0.0, 0.0, 0.0, 0.0, 0.0, 1.686361391528002E9, 0.0, 2023-06-09 18:43:11.528
8.0, 22904.994834064822, -45073.991426705295, -12411.119033231622, -23006.382346914095, -638.3658216435697, 0.0, 0.0, 0.0, 0.026000000000000002, -0.024, 0.994, 192.0, 0.0, 208.0, 255.0, 64.0, 31.0, 16.0, 0.0, 0.0, 0.0, 1.6863613915320313E9, 0.0, 2023-06-09 18:43:11.532
9.0, 22909.28636900024, -45075.06431043915, -12422.384312437098, -23016.03830051879, -638.902263510497, 0.0, 0.0, 0.0, 0.026000000000000002, -0.024, 0.994, 192.0, 0.0, 0.0, 0.0, 0.0, 0.0, 0.0, 0.0, 0.0, 0.0, 1.686361391536998E9, 0.0, 2023-06-09 18:43:11.536
10.0, 22911.432136467953, -45076.67363603994, -12408.97326576391, -23000.481486377896, -637.292937909715, 0.0, 0.0, 0.0, 0.026000000000000002, -0.024, 0.994, 192.0, 0.0, 0.0, 0.0, 0.0, 0.0, 0.0, 0.0, 0.0, 0.0, 1.6863613915410018E9, 0.0, 2023-06-09 18:43:11.541
11.0, 22914.650787669518, -45075.600752306076, -12411.119033231622, -22987.606881571635, -637.292937909715, 0.0, 0.0, 0.0, 0.026000000000000002, -0.024, 0.994, 192.0, 0.0, 0.0, 0.0, 0.0, 0.0, 0.0, 0.0, 0.0, 0.0, 1.6863613915450573E9, 0.0, 2023-06-09 18:43:11.545
12.0, 22915.18722953644, -45073.45498483837, -12423.457196170952, -22997.799277043257, -636.7564960427876, 0.0, 0.0, 0.0, 0.026000000000000002, -0.024, 0.994, 192.0, 0.0, 0.0, 0.0, 0.0, 0.0, 0.0, 0.0, 0.0, 0.0, 1.6863613915480075E9, 0.0, 2023-06-09 18:43:11.548
13.0, 22915.72367140337, -45073.991426705295, -12420.774986836313, -23018.720509853425, -638.3658216435697, 0.0, 0.0, 0.0, 0.026000000000000002, -0.024, 0.994, 192.0, 0.0, 0.0, 0.0, 0.0, 0.0, 0.0, 0.0, 0.0, 0.0, 1.6863613915520413E9, 0.0, 2023-06-09 18:43:11.552
14.0, 22914.650787669518, -45069.163449902946, -12426.139405505586, -23007.455230647953, -637.292937909715, 0.0, 0.0, 0.0, 0.026000000000000002, -0.024, 0.994, 192.0, 0.0, 0.0, 0.0, 0.0, 0.0, 0.0, 0.0, 0.0, 0.0, 1.686361391556018E9, 0.0, 2023-06-09 18:43:11.556
15.0, 22917.332997004152, -45068.09056616909, -12423.457196170952, -22989.752649039347, -636.7564960427876, 0.0, 0.0, 0.0, 0.026000000000000002, -0.024, 0.994, 192.0, 0.0, 0.0, 0.0, 0.0, 0.0, 0.0, 0.0, 0.0, 0.0, 1.6863613915600717E9, 0.0, 2023-06-09 18:43:11.560
16.0, 22919.47876447186, -45069.69989176988, -12414.87412630011, -22996.189951442473, -636.7564960427876, 0.0, 0.0, 0.0, 0.026000000000000002, -0.024, 0.994, 192.0, 0.0, 0.0, 0.0, 0.0, 0.0, 0.0, 0.0, 0.0, 0.0, 1.6863613915640576E9, 0.0, 2023-06-09 18:43:11.564
17.0, 22916.2601132703, -45069.69989176988, -12419.70210310246, -23011.746765583368, -636.7564960427876, 0.0, 0.0, 0.0, 0.03, -0.02, 0.998, 192.0, 0.0, 240.0, 255.0, 96.0, 31.0, 48.0, 0.0, 0.0, 0.0, 1.6863613915690703E9, 0.0, 2023-06-09 18:43:11.569
18.0, 22913.041462068733, -45071.309217370654, -12425.066521771732, -23001.017928244823, -637.8293797766423, 0.0, 0.0, 0.0, 0.03, -0.02, 0.998, 192.0, 0.0, 0.0, 0.0, 0.0, 0.0, 0.0, 0.0, 0.0, 0.0, 1.6863613915720568E9, 0.0, 2023-06-09 18:43:11.572
19.0, 22917.86943887108, -45071.309217370654, -12426.675847372517, -22989.752649039347, -635.6836123089329, 0.0, 0.0, 0.0, 0.03, -0.02, 0.998, 192.0, 0.0, 0.0, 0.0, 0.0, 0.0, 0.0, 0.0, 0.0, 0.0, 1.686361391576065E9, 0.0, 2023-06-09 18:43:11.576
20.0, 22914.114345802587, -45069.69989176988, -12409.509707630838, -22989.752649039347, -637.8293797766423, 0.0, 0.0, 0.0, 0.03, -0.02, 0.998, 192.0, 0.0, 0.0, 0.0, 0.0, 0.0, 0.0, 0.0, 0.0, 0.0, 1.6863613915801785E9, 0.0, 2023-06-09 18:43:11.580
21.0, 22915.72367140337, -45075.600752306076, -12418.092777501675, -23004.77302131331, -638.902263510497, 0.0, 0.0, 0.0, 0.03, -0.02, 0.998, 192.0, 0.0, 0.0, 0.0, 0.0, 0.0, 0.0, 0.0, 0.0, 0.0, 1.6863613915840876E9, 0.0, 2023-06-09 18:43:11.584
22.0, 22911.968578334876, -45072.382101104515, -12420.774986836313, -23004.236579446388, -637.292937909715, 0.0, 0.0, 0.0, 0.03, -0.02, 0.998, 192.0, 0.0, 0.0, 0.0, 0.0, 0.0, 0.0, 0.0, 0.0, 0.0, 1.68636139158812E9, 0.0, 2023-06-09 18:43:11.588
23.0, 22911.432136467953, -45072.91854297144, -12424.530079904805, -22990.8255327732, -636.2200541758602, 0.0, 0.0, 0.0, 0.03, -0.02, 0.998, 192.0, 0.0, 0.0, 0.0, 0.0, 0.0, 0.0, 0.0, 0.0, 0.0, 1.686361391592234E9, 0.0, 2023-06-09 18:43:11.592
24.0, 22920.01520633879, -45070.23633363681, -12429.358056707151, -22988.679765305493, -636.2200541758602, 0.0, 0.0, 0.0, 0.03, -0.02, 0.998, 192.0, 0.0, 0.0, 0.0, 0.0, 0.0, 0.0, 0.0, 0.0, 0.0, 1.686361391597096E9, 0.0, 2023-06-09 18:43:11.597
25.0, 22925.379625008063, -45066.48124056831, -12425.602963638661, -23004.236579446388, -636.7564960427876, 0.0, 0.0, 0.0, 0.03, -0.02, 0.998, 192.0, 0.0, 0.0, 0.0, 0.0, 0.0, 0.0, 0.0, 0.0, 0.0, 1.6863613916001072E9, 0.0, 2023-06-09 18:43:11.600
26.0, 22923.233857540356, -45067.554124302165, -12434.186033509499, -23007.455230647953, -636.7564960427876, 0.0, 0.0, 0.0, 0.03, -0.02, 0.998, 192.0, 0.0, 0.0, 0.0, 0.0, 0.0, 0.0, 0.0, 0.0, 0.0, 1.6863613916040971E9, 0.0, 2023-06-09 18:43:11.604
27.0, 22923.77029940728, -45067.01768243524, -12435.79535911028, -22984.388230370074, -636.7564960427876, 0.0, 0.0, 0.0, 0.03, -0.024, 1.0, 192.0, 0.0, 240.0, 255.0, 64.0, 31.0, 64.0, 0.0, 0.0, 0.0, 1.6863613916080837E9, 0.0, 2023-06-09 18:43:11.608
28.0, 22920.01520633879, -45068.62700803602, -12408.436823896984, -22983.851788503147, -636.7564960427876, 0.0, 0.0, 0.0, 0.03, -0.024, 1.0, 192.0, 0.0, 0.0, 0.0, 0.0, 0.0, 0.0, 0.0, 0.0, 0.0, 1.686361391612147E9, 0.0, 2023-06-09 18:43:11.612
29.0, 22915.72367140337, -45071.84565923759, -12413.801242566256, -23002.090811978676, -636.7564960427876, 0.0, 0.0, 0.0, 0.03, -0.024, 1.0, 192.0, 0.0, 0.0, 0.0, 0.0, 0.0, 0.0, 0.0, 0.0, 0.0, 1.686361391616115E9, 0.0, 2023-06-09 18:43:11.616
30.0, 22911.432136467953, -45073.45498483837, -12416.483451900895, -23006.918788781022, -636.7564960427876, 0.0, 0.0, 0.0, 0.03, -0.024, 1.0, 192.0, 0.0, 0.0, 0.0, 0.0, 0.0, 0.0, 0.0, 0.0, 0.0, 1.6863613916201572E9, 0.0, 2023-06-09 18:43:11.620
31.0, 22911.968578334876, -45077.21007790686, -12435.79535911028, -22987.070439704712, -635.6836123089329, 0.0, 0.0, 0.0, 0.03, -0.024, 1.0, 192.0, 0.0, 0.0, 0.0, 0.0, 0.0, 0.0, 0.0, 0.0, 0.0, 1.6863613916251943E9, 0.0, 2023-06-09 18:43:11.625
32.0, 22922.697415673425, -45073.991426705295, -12434.186033509499, -22977.950927966944, -636.2200541758602, 0.0, 0.0, 0.0, 0.03, -0.024, 1.0, 192.0, 0.0, 0.0, 0.0, 0.0, 0.0, 0.0, 0.0, 0.0, 0.0, 1.6863613916281612E9, 0.0, 2023-06-09 18:43:11.628
33.0, 22925.91606687499, -45069.69989176988, -12415.947010033966, -22984.924672237, -637.292937909715, 0.0, 0.0, 0.0, 0.03, -0.024, 1.0, 192.0, 0.0, 0.0, 0.0, 0.0, 0.0, 0.0, 0.0, 0.0, 0.0, 1.6863613916311853E9, 0.0, 2023-06-09 18:43:11.631
34.0, 22925.91606687499, -45065.944798701385, -12423.993638037879, -22995.11706770862, -636.7564960427876, 0.0, 0.0, 0.0, 0.03, -0.024, 1.0, 192.0, 0.0, 0.0, 0.0, 0.0, 0.0, 0.0, 0.0, 0.0, 0.0, 1.6863613916361918E9, 0.0, 2023-06-09 18:43:11.636
35.0, 22921.62453193957, -45063.26258936675, -12421.311428703242, -22984.388230370074, -636.2200541758602, 0.0, 0.0, 0.0, 0.03, -0.024, 1.0, 192.0, 0.0, 0.0, 0.0, 0.0, 0.0, 0.0, 0.0, 0.0, 0.0, 1.6863613916401815E9, 0.0, 2023-06-09 18:43:11.640
36.0, 22923.77029940728, -45065.944798701385, -12421.847870570167, -22976.87804423309, -635.1471704420055, 0.0, 0.0, 0.0, 0.03, -0.024, 1.0, 192.0, 0.0, 0.0, 0.0, 0.0, 0.0, 0.0, 0.0, 0.0, 0.0, 1.6863613916443613E9, 0.0, 2023-06-09 18:43:11.644
37.0, 22913.57790393566, -45069.163449902946, -12426.139405505586, -22988.679765305493, -637.8293797766423, 0.0, 0.0, 0.0, 0.03, -0.02, 1.004, 192.0, 0.0, 240.0, 255.0, 96.0, 31.0, 96.0, 0.0, 0.0, 0.0, 1.6863613916482606E9, 0.0, 2023-06-09 18:43:11.648
38.0, 22912.505020201806, -45072.91854297144, -12413.26480069933, -23002.627253845603, -637.8293797766423, 0.0, 0.0, 0.0, 0.03, -0.02, 1.004, 192.0, 0.0, 0.0, 0.0, 0.0, 0.0, 0.0, 0.0, 0.0, 0.0, 1.6863613916522598E9, 0.0, 2023-06-09 18:43:11.652
39.0, 22918.942322604933, -45069.163449902946, -12414.337684433185, -22996.189951442473, -637.8293797766423, 0.0, 0.0, 0.0, 0.03, -0.02, 1.004, 192.0, 0.0, 0.0, 0.0, 0.0, 0.0, 0.0, 0.0, 0.0, 0.0, 1.686361391656271E9, 0.0, 2023-06-09 18:43:11.656
40.0, 22917.332997004152, -45066.48124056831, -12424.530079904805, -22991.36197464013, -638.902263510497, 0.0, 0.0, 0.0, 0.03, -0.02, 1.004, 192.0, 0.0, 0.0, 0.0, 0.0, 0.0, 0.0, 0.0, 0.0, 0.0, 1.6863613916593137E9, 0.0, 2023-06-09 18:43:11.659
41.0, 22919.47876447186, -45065.944798701385, -12418.092777501675, -22994.044183974765, -638.902263510497, 0.0, 0.0, 0.0, 0.03, -0.02, 1.004, 192.0, 0.0, 0.0, 0.0, 0.0, 0.0, 0.0, 0.0, 0.0, 0.0, 1.686361391664274E9, 0.0, 2023-06-09 18:43:11.664
42.0, 22921.088090072644, -45067.01768243524, -12425.066521771732, -23007.455230647953, -637.8293797766423, 0.0, 0.0, 0.0, 0.03, -0.02, 1.004, 192.0, 0.0, 0.0, 0.0, 0.0, 0.0, 0.0, 0.0, 0.0, 0.0, 1.6863613916682663E9, 0.0, 2023-06-09 18:43:11.668
43.0, 22922.160973806498, -45068.09056616909, -12420.774986836313, -23000.481486377896, -637.292937909715, 0.0, 0.0, 0.0, 0.03, -0.02, 1.004, 192.0, 0.0, 0.0, 0.0, 0.0, 0.0, 0.0, 0.0, 0.0, 0.0, 1.6863613916722574E9, 0.0, 2023-06-09 18:43:11.672
44.0, 22921.088090072644, -45069.69989176988, -12418.092777501675, -22990.8255327732, -637.292937909715, 0.0, 0.0, 0.0, 0.03, -0.02, 1.004, 192.0, 0.0, 0.0, 0.0, 0.0, 0.0, 0.0, 0.0, 0.0, 0.0, 1.6863613916762834E9, 0.0, 2023-06-09 18:43:11.676
45.0, 22921.62453193957, -45069.163449902946, -12426.139405505586, -22988.143323438566, -637.292937909715, 0.0, 0.0, 0.0, 0.03, -0.02, 1.004, 192.0, 0.0, 0.0, 0.0, 0.0, 0.0, 0.0, 0.0, 0.0, 0.0, 1.6863613916802745E9, 0.0, 2023-06-09 18:43:11.680
46.0, 22911.968578334876, -45072.91854297144, -12417.019893767821, -23003.700137579457, -638.902263510497, 0.0, 0.0, 0.0, 0.03, -0.02, 1.004, 192.0, 0.0, 0.0, 0.0, 0.0, 0.0, 0.0, 0.0, 0.0, 0.0, 1.6863613916832745E9, 0.0, 2023-06-09 18:43:11.683
47.0, 22910.359252734095, -45072.382101104515, -12425.602963638661, -23006.382346914095, -637.8293797766423, 0.0, 0.0, 0.0, 0.026000000000000002, -0.026000000000000002, 1.008, 192.0, 0.0, 208.0, 255.0, 48.0, 31.0, 128.0, 0.0, 0.0, 0.0, 1.6863613916872728E9, 0.0, 2023-06-09 18:43:11.687
48.0, 22919.47876447186, -45067.554124302165, -12428.285172973297, -22994.044183974765, -637.292937909715, 0.0, 0.0, 0.0, 0.026000000000000002, -0.026000000000000002, 1.008, 192.0, 0.0, 0.0, 0.0, 0.0, 0.0, 0.0, 0.0, 0.0, 0.0, 1.6863613916912625E9, 0.0, 2023-06-09 18:43:11.691
49.0, 22926.988950608844, -45064.87191496753, -12425.066521771732, -22990.289090906277, -637.292937909715, 0.0, 0.0, 0.0, 0.026000000000000002, -0.026000000000000002, 1.008, 192.0, 0.0, 0.0, 0.0, 0.0, 0.0, 0.0, 0.0, 0.0, 0.0, 1.686361391696274E9, 0.0, 2023-06-09 18:43:11.696
50.0, 22925.91606687499, -45064.3354731006, -12426.675847372517, -23002.090811978676, -638.902263510497, 0.0, 0.0, 0.0, 0.026000000000000002, -0.026000000000000002, 1.008, 192.0, 0.0, 0.0, 0.0, 0.0, 0.0, 0.0, 0.0, 0.0, 0.0, 1.6863613917003195E9, 0.0, 2023-06-09 18:43:11.700
51.0, 22919.47876447186, -45067.01768243524, -12423.457196170952, -23010.137439982587, -636.7564960427876, 0.0, 0.0, 0.0, 0.026000000000000002, -0.026000000000000002, 1.008, 192.0, 0.0, 0.0, 0.0, 0.0, 0.0, 0.0, 0.0, 0.0, 0.0, 1.6863613917042868E9, 0.0, 2023-06-09 18:43:11.704
52.0, 22920.01520633879, -45069.163449902946, -12428.821614840224, -22992.97130024091, -636.2200541758602, 0.0, 0.0, 0.0, 0.026000000000000002, -0.026000000000000002, 1.008, 192.0, 0.0, 0.0, 0.0, 0.0, 0.0, 0.0, 0.0, 0.0, 0.0, 1.6863613917072883E9, 0.0, 2023-06-09 18:43:11.707
53.0, 22914.650787669518, -45072.382101104515, -12417.019893767821, -22984.924672237, -636.7564960427876, 0.0, 0.0, 0.0, 0.026000000000000002, -0.026000000000000002, 1.008, 192.0, 0.0, 0.0, 0.0, 0.0, 0.0, 0.0, 0.0, 0.0, 0.0, 1.6863613917112792E9, 0.0, 2023-06-09 18:43:11.711
54.0, 22919.47876447186, -45071.309217370654, -12417.019893767821, -22996.726393309404, -638.902263510497, 0.0, 0.0, 0.0, 0.026000000000000002, -0.026000000000000002, 1.008, 192.0, 0.0, 0.0, 0.0, 0.0, 0.0, 0.0, 0.0, 0.0, 0.0, 1.6863613917153077E9, 0.0, 2023-06-09 18:43:11.715
55.0, 22921.088090072644, -45067.554124302165, -12419.16566123553, -23004.77302131331, -637.8293797766423, 0.0, 0.0, 0.0, 0.026000000000000002, -0.026000000000000002, 1.008, 192.0, 0.0, 0.0, 0.0, 0.0, 0.0, 0.0, 0.0, 0.0, 0.0, 1.686361391720305E9, 0.0, 2023-06-09 18:43:11.720
56.0, 22922.697415673425, -45067.01768243524, -12423.993638037879, -22984.924672237, -638.902263510497, 0.0, 0.0, 0.0, 0.032, -0.026000000000000002, 1.002, 192.0, 1.0, 0.0, 255.0, 48.0, 31.0, 80.0, 0.0, 0.0, 0.0, 1.6863613917243404E9, 0.0, 2023-06-09 18:43:11.724
57.0, 22924.30674127421, -45068.09056616909, -12430.967382307936, -22975.805160499236, -637.292937909715, 0.0, 0.0, 0.0, 0.032, -0.026000000000000002, 1.002, 192.0, 0.0, 0.0, 0.0, 0.0, 0.0, 0.0, 0.0, 0.0, 0.0, 1.6863613917283056E9, 0.0, 2023-06-09 18:43:11.728
58.0, 22918.942322604933, -45069.163449902946, -12423.457196170952, -22991.36197464013, -638.902263510497, 0.0, 0.0, 0.0, 0.032, -0.026000000000000002, 1.002, 192.0, 0.0, 0.0, 0.0, 0.0, 0.0, 0.0, 0.0, 0.0, 0.0, 1.6863613917323596E9, 0.0, 2023-06-09 18:43:11.732
59.0, 22917.332997004152, -45070.23633363681, -12411.119033231622, -23011.746765583368, -639.4387053774244, 0.0, 0.0, 0.0, 0.032, -0.026000000000000002, 1.002, 192.0, 0.0, 0.0, 0.0, 0.0, 0.0, 0.0, 0.0, 0.0, 0.0, 1.6863613917353508E9, 0.0, 2023-06-09 18:43:11.735
60.0, 22910.895694601022, -45070.77277550373, -12424.530079904805, -22994.580625841692, -637.292937909715, 0.0, 0.0, 0.0, 0.032, -0.026000000000000002, 1.002, 192.0, 0.0, 0.0, 0.0, 0.0, 0.0, 0.0, 0.0, 0.0, 0.0, 1.686361391739372E9, 0.0, 2023-06-09 18:43:11.739
61.0, 22914.650787669518, -45072.382101104515, -12431.50382417486, -22985.997555970855, -636.7564960427876, 0.0, 0.0, 0.0, 0.032, -0.026000000000000002, 1.002, 192.0, 0.0, 0.0, 0.0, 0.0, 0.0, 0.0, 0.0, 0.0, 0.0, 1.6863613917433803E9, 0.0, 2023-06-09 18:43:11.743
62.0, 22921.088090072644, -45069.69989176988, -12422.384312437098, -22992.434858373985, -637.8293797766423, 0.0, 0.0, 0.0, 0.032, -0.026000000000000002, 1.002, 192.0, 0.0, 0.0, 0.0, 0.0, 0.0, 0.0, 0.0, 0.0, 0.0, 1.6863613917474103E9, 0.0, 2023-06-09 18:43:11.747
63.0, 22917.332997004152, -45069.69989176988, -12425.602963638661, -23003.700137579457, -637.292937909715, 0.0, 0.0, 0.0, 0.032, -0.026000000000000002, 1.002, 192.0, 0.0, 0.0, 0.0, 0.0, 0.0, 0.0, 0.0, 0.0, 0.0, 1.6863613917524395E9, 0.0, 2023-06-09 18:43:11.752
64.0, 22918.942322604933, -45070.77277550373, -12428.285172973297, -22994.044183974765, -637.292937909715, 0.0, 0.0, 0.0, 0.032, -0.026000000000000002, 1.002, 192.0, 0.0, 0.0, 0.0, 0.0, 0.0, 0.0, 0.0, 0.0, 0.0, 1.6863613917563553E9, 0.0, 2023-06-09 18:43:11.756
65.0, 22920.551648205714, -45069.163449902946, -12421.311428703242, -22980.633137301582, -637.8293797766423, 0.0, 0.0, 0.0, 0.032, -0.026000000000000002, 1.002, 192.0, 0.0, 0.0, 0.0, 0.0, 0.0, 0.0, 0.0, 0.0, 0.0, 1.6863613917604308E9, 0.0, 2023-06-09 18:43:11.760
66.0, 22920.01520633879, -45066.48124056831, -12405.218172695419, -22982.242462902363, -637.8293797766423, 0.0, 0.0, 0.0, 0.03, -0.026000000000000002, 1.004, 192.0, 0.0, 240.0, 255.0, 48.0, 31.0, 96.0, 0.0, 0.0, 0.0, 1.6863613917634E9, 0.0, 2023-06-09 18:43:11.763
67.0, 22922.697415673425, -45064.87191496753, -12424.530079904805, -22999.94504451097, -636.7564960427876, 0.0, 0.0, 0.0, 0.03, -0.026000000000000002, 1.004, 192.0, 0.0, 0.0, 0.0, 0.0, 0.0, 0.0, 0.0, 0.0, 0.0, 1.6863613917674313E9, 0.0, 2023-06-09 18:43:11.767
68.0, 22920.01520633879, -45063.26258936675, -12428.821614840224, -22992.97130024091, -637.8293797766423, 0.0, 0.0, 0.0, 0.03, -0.026000000000000002, 1.004, 192.0, 0.0, 0.0, 0.0, 0.0, 0.0, 0.0, 0.0, 0.0, 0.0, 1.6863613917714741E9, 0.0, 2023-06-09 18:43:11.771
69.0, 22913.57790393566, -45064.3354731006, -12424.530079904805, -22981.70602103544, -638.902263510497, 0.0, 0.0, 0.0, 0.03, -0.026000000000000002, 1.004, 192.0, 0.0, 0.0, 0.0, 0.0, 0.0, 0.0, 0.0, 0.0, 0.0, 1.686361391775493E9, 0.0, 2023-06-09 18:43:11.775
70.0, 22920.551648205714, -45068.62700803602, -12426.139405505586, -22975.805160499236, -639.4387053774244, 0.0, 0.0, 0.0, 0.03, -0.026000000000000002, 1.004, 192.0, 0.0, 0.0, 0.0, 0.0, 0.0, 0.0, 0.0, 0.0, 0.0, 1.6863613917804463E9, 0.0, 2023-06-09 18:43:11.780
71.0, 22921.088090072644, -45065.40835683446, -12431.50382417486, -22996.726393309404, -640.5115891112791, 0.0, 0.0, 0.0, 0.03, -0.026000000000000002, 1.004, 192.0, 0.0, 0.0, 0.0, 0.0, 0.0, 0.0, 0.0, 0.0, 0.0, 1.6863613917844665E9, 0.0, 2023-06-09 18:43:11.784
72.0, 22920.01520633879, -45064.87191496753, -12415.41056816704, -22997.26283517633, -637.8293797766423, 0.0, 0.0, 0.0, 0.03, -0.026000000000000002, 1.004, 192.0, 0.0, 0.0, 0.0, 0.0, 0.0, 0.0, 0.0, 0.0, 0.0, 1.6863613917874615E9, 0.0, 2023-06-09 18:43:11.787
73.0, 22922.160973806498, -45067.554124302165, -12408.97326576391, -22985.997555970855, -636.2200541758602, 0.0, 0.0, 0.0, 0.03, -0.026000000000000002, 1.004, 192.0, 0.0, 0.0, 0.0, 0.0, 0.0, 0.0, 0.0, 0.0, 0.0, 1.6863613917914748E9, 0.0, 2023-06-09 18:43:11.791
74.0, 22923.77029940728, -45063.26258936675, -12425.602963638661, -22990.289090906277, -636.7564960427876, 0.0, 0.0, 0.0, 0.03, -0.026000000000000002, 1.004, 192.0, 0.0, 0.0, 0.0, 0.0, 0.0, 0.0, 0.0, 0.0, 0.0, 1.686361391795528E9, 0.0, 2023-06-09 18:43:11.795
75.0, 22930.744043677336, -45064.3354731006, -12433.64959164257, -23008.528114381807, -637.8293797766423, 0.0, 0.0, 0.0, 0.03, -0.026000000000000002, 1.004, 192.0, 0.0, 0.0, 0.0, 0.0, 0.0, 0.0, 0.0, 0.0, 0.0, 1.686361391799501E9, 0.0, 2023-06-09 18:43:11.799
76.0, 22922.160973806498, -45064.3354731006, -12428.821614840224, -23013.35609118415, -636.7564960427876, 0.0, 0.0, 0.0, 0.036000000000000004, -0.024, 1.002, 192.0, 1.0, 32.0, 255.0, 64.0, 31.0, 80.0, 0.0, 0.0, 0.0, 1.6863613918035047E9, 0.0, 2023-06-09 18:43:11.803
77.0, 22918.942322604933, -45068.09056616909, -12425.602963638661, -22992.434858373985, -636.7564960427876, 0.0, 0.0, 0.0, 0.036000000000000004, -0.024, 1.002, 192.0, 0.0, 0.0, 0.0, 0.0, 0.0, 0.0, 0.0, 0.0, 0.0, 1.6863613918084843E9, 0.0, 2023-06-09 18:43:11.808
78.0, 22916.796555137225, -45071.309217370654, -12425.602963638661, -22982.242462902363, -637.292937909715, 0.0, 0.0, 0.0, 0.036000000000000004, -0.024, 1.002, 192.0, 0.0, 0.0, 0.0, 0.0, 0.0, 0.0, 0.0, 0.0, 0.0, 1.6863613918126009E9, 0.0, 2023-06-09 18:43:11.812
79.0, 22918.405880738006, -45070.77277550373, -12440.623335912627, -22995.65350957555, -637.8293797766423, 0.0, 0.0, 0.0, 0.036000000000000004, -0.024, 1.002, 192.0, 0.0, 0.0, 0.0, 0.0, 0.0, 0.0, 0.0, 0.0, 0.0, 1.6863613918155143E9, 0.0, 2023-06-09 18:43:11.815
80.0, 22920.551648205714, -45065.944798701385, -12415.41056816704, -23003.16369571253, -638.902263510497, 0.0, 0.0, 0.0, 0.036000000000000004, -0.024, 1.002, 192.0, 0.0, 0.0, 0.0, 0.0, 0.0, 0.0, 0.0, 0.0, 0.0, 1.686361391819486E9, 0.0, 2023-06-09 18:43:11.819
81.0, 22911.968578334876, -45068.62700803602, -12400.390195893073, -22988.143323438566, -636.7564960427876, 0.0, 0.0, 0.0, 0.036000000000000004, -0.024, 1.002, 192.0, 0.0, 0.0, 0.0, 0.0, 0.0, 0.0, 0.0, 0.0, 0.0, 1.6863613918235035E9, 0.0, 2023-06-09 18:43:11.823
82.0, 22918.942322604933, -45069.69989176988, -12419.16566123553, -22977.950927966944, -636.2200541758602, 0.0, 0.0, 0.0, 0.036000000000000004, -0.024, 1.002, 192.0, 0.0, 0.0, 0.0, 0.0, 0.0, 0.0, 0.0, 0.0, 0.0, 1.68636139182749E9, 0.0, 2023-06-09 18:43:11.827
83.0, 22928.0618343427, -45070.23633363681, -12425.066521771732, -22997.799277043257, -639.4387053774244, 0.0, 0.0, 0.0, 0.036000000000000004, -0.024, 1.002, 192.0, 0.0, 0.0, 0.0, 0.0, 0.0, 0.0, 0.0, 0.0, 0.0, 1.6863613918316486E9, 0.0, 2023-06-09 18:43:11.831
84.0, 22931.280485544266, -45065.944798701385, -12429.358056707151, -23014.428974918006, -638.3658216435697, 0.0, 0.0, 0.0, 0.036000000000000004, -0.024, 1.002, 192.0, 0.0, 0.0, 0.0, 0.0, 0.0, 0.0, 0.0, 0.0, 0.0, 1.6863613918365502E9, 0.0, 2023-06-09 18:43:11.836
85.0, 22920.551648205714, -45065.944798701385, -12430.967382307936, -23007.455230647953, -638.902263510497, 0.0, 0.0, 0.0, 0.036000000000000004, -0.024, 1.002, 192.0, 0.0, 0.0, 0.0, 0.0, 0.0, 0.0, 0.0, 0.0, 0.0, 1.6863613918405547E9, 0.0, 2023-06-09 18:43:11.840
86.0, 22925.91606687499, -45067.554124302165, -12439.550452178773, -23002.627253845603, -638.902263510497, 0.0, 0.0, 0.0, 0.032, -0.018000000000000002, 1.0, 192.0, 1.0, 0.0, 255.0, 112.0, 31.0, 64.0, 0.0, 0.0, 0.0, 1.6863613918435476E9, 0.0, 2023-06-09 18:43:11.843
87.0, 22929.134718076555, -45068.62700803602, -12426.139405505586, -22984.388230370074, -638.902263510497, 0.0, 0.0, 0.0, 0.032, -0.018000000000000002, 1.0, 192.0, 0.0, 0.0, 0.0, 0.0, 0.0, 0.0, 0.0, 0.0, 0.0, 1.6863613918475623E9, 0.0, 2023-06-09 18:43:11.847
88.0, 22923.77029940728, -45069.163449902946, -12432.576707908716, -22999.40860264404, -637.8293797766423, 0.0, 0.0, 0.0, 0.032, -0.018000000000000002, 1.0, 192.0, 0.0, 0.0, 0.0, 0.0, 0.0, 0.0, 0.0, 0.0, 0.0, 1.6863613918515866E9, 0.0, 2023-06-09 18:43:11.851
89.0, 22913.041462068733, -45067.554124302165, -12399.853754026146, -23001.017928244823, -636.2200541758602, 0.0, 0.0, 0.0, 0.032, -0.018000000000000002, 1.0, 192.0, 0.0, 0.0, 0.0, 0.0, 0.0, 0.0, 0.0, 0.0, 0.0, 1.6863613918556097E9, 0.0, 2023-06-09 18:43:11.855
90.0, 22911.968578334876, -45071.309217370654, -12417.019893767821, -22974.195834898455, -637.292937909715, 0.0, 0.0, 0.0, 0.032, -0.018000000000000002, 1.0, 192.0, 0.0, 0.0, 0.0, 0.0, 0.0, 0.0, 0.0, 0.0, 0.0, 1.6863613918596103E9, 0.0, 2023-06-09 18:43:11.859
91.0, 22924.30674127421, -45069.69989176988, -12433.113149775643, -22979.023811700798, -637.292937909715, 0.0, 0.0, 0.0, 0.032, -0.018000000000000002, 1.0, 192.0, 0.0, 0.0, 0.0, 0.0, 0.0, 0.0, 0.0, 0.0, 0.0, 1.6863613918636055E9, 0.0, 2023-06-09 18:43:11.863
92.0, 22926.988950608844, -45067.01768243524, -12430.430940441005, -23010.673881849514, -637.8293797766423, 0.0, 0.0, 0.0, 0.032, -0.018000000000000002, 1.0, 192.0, 0.0, 0.0, 0.0, 0.0, 0.0, 0.0, 0.0, 0.0, 0.0, 1.686361391868586E9, 0.0, 2023-06-09 18:43:11.868
93.0, 22923.77029940728, -45066.48124056831, -12428.285172973297, -22973.1229511646, -638.3658216435697, 0.0, 0.0, 0.0, 0.032, -0.018000000000000002, 1.0, 192.0, 0.0, 0.0, 0.0, 0.0, 0.0, 0.0, 0.0, 0.0, 0.0, 1.6863613918715732E9, 0.0, 2023-06-09 18:43:11.871
94.0, 22922.160973806498, -45064.3354731006, -12419.70210310246, -22945.764415951304, -637.8293797766423, 0.0, 0.0, 0.0, 0.032, -0.018000000000000002, 1.0, 192.0, 0.0, 0.0, 0.0, 0.0, 0.0, 0.0, 0.0, 0.0, 0.0, 1.6863613918756154E9, 0.0, 2023-06-09 18:43:11.875
95.0, 22915.18722953644, -45070.23633363681, -12429.358056707151, -22976.87804423309, -638.902263510497, 0.0, 0.0, 0.0, 0.022, -0.022, 0.998, 192.0, 0.0, 176.0, 255.0, 80.0, 31.0, 48.0, 0.0, 0.0, 0.0, 1.6863613918796155E9, 0.0, 2023-06-09 18:43:11.879
96.0, 22918.405880738006, -45073.45498483837, -12425.602963638661, -22996.726393309404, -638.3658216435697, 0.0, 0.0, 0.0, 0.022, -0.022, 0.998, 192.0, 0.0, 0.0, 0.0, 0.0, 0.0, 0.0, 0.0, 0.0, 0.0, 1.6863613918836167E9, 0.0, 2023-06-09 18:43:11.883
97.0, 22927.52539247577, -45072.382101104515, -12415.41056816704, -22983.31534663622, -639.4387053774244, 0.0, 0.0, 0.0, 0.022, -0.022, 0.998, 192.0, 0.0, 0.0, 0.0, 0.0, 0.0, 0.0, 0.0, 0.0, 0.0, 1.6863613918876033E9, 0.0, 2023-06-09 18:43:11.887
98.0, 22917.86943887108, -45069.69989176988, -12423.457196170952, -22945.764415951304, -638.902263510497, 0.0, 0.0, 0.0, 0.022, -0.022, 0.998, 192.0, 0.0, 0.0, 0.0, 0.0, 0.0, 0.0, 0.0, 0.0, 0.0, 1.6863613918916647E9, 0.0, 2023-06-09 18:43:11.891
99.0, 22921.62453193957, -45068.09056616909, -12427.212289239442, -22953.811043955215, -638.902263510497, 0.0, 0.0, 0.0, 0.022, -0.022, 0.998, 192.0, 0.0, 0.0, 0.0, 0.0, 0.0, 0.0, 0.0, 0.0, 0.0, 1.686361391896652E9, 0.0, 2023-06-09 18:43:11.896
100.0, 22929.671159943482, -45066.48124056831, -12421.847870570167, -22965.076323160687, -639.4387053774244, 0.0, 0.0, 0.0, 0.022, -0.022, 0.998, 192.0, 0.0, 0.0, 0.0, 0.0, 0.0, 0.0, 0.0, 0.0, 0.0, 1.686361391899722E9, 0.0, 2023-06-09 18:43:11.899
101.0, 22929.671159943482, -45065.40835683446, -12439.014010311843, -22965.612765027618, -639.4387053774244, 0.0, 0.0, 0.0, 0.022, -0.022, 0.998, 192.0, 0.0, 0.0, 0.0, 0.0, 0.0, 0.0, 0.0, 0.0, 0.0, 1.6863613919036503E9, 0.0, 2023-06-09 18:43:11.903
102.0, 22933.426253011974, -45065.944798701385, -12412.728358832403, -22946.837299685158, -637.8293797766423, 0.0, 0.0, 0.0, 0.022, -0.022, 0.998, 192.0, 0.0, 0.0, 0.0, 0.0, 0.0, 0.0, 0.0, 0.0, 0.0, 1.6863613919076667E9, 0.0, 2023-06-09 18:43:11.907
103.0, 22922.697415673425, -45067.01768243524, -12419.16566123553, -22937.717787947393, -637.8293797766423, 0.0, 0.0, 0.0, 0.022, -0.022, 0.998, 192.0, 0.0, 0.0, 0.0, 0.0, 0.0, 0.0, 0.0, 0.0, 0.0, 1.686361391911721E9, 0.0, 2023-06-09 18:43:11.911
104.0, 22918.942322604933, -45067.554124302165, -12438.477568444918, -22943.082206616666, -637.8293797766423, 0.0, 0.0, 0.0, 0.022, -0.022, 0.998, 192.0, 0.0, 0.0, 0.0, 0.0, 0.0, 0.0, 0.0, 0.0, 0.0, 1.6863613919157648E9, 0.0, 2023-06-09 18:43:11.915
105.0, 22918.942322604933, -45071.309217370654, -12441.696219646481, -22940.936439148958, -637.292937909715, 0.0, 0.0, 0.0, 0.024, -0.024, 1.018, 192.0, 0.0, 192.0, 255.0, 64.0, 31.0, 208.0, 0.0, 0.0, 0.0, 1.6863613919207623E9, 0.0, 2023-06-09 18:43:11.920
106.0, 22911.968578334876, -45072.382101104515, -12430.430940441005, -22911.968578334876, -637.292937909715, 0.0, 0.0, 0.0, 0.024, -0.024, 1.018, 192.0, 0.0, 0.0, 0.0, 0.0, 0.0, 0.0, 0.0, 0.0, 0.0, 1.686361391923755E9, 0.0, 2023-06-09 18:43:11.923
107.0, 22921.088090072644, -45071.84565923759, -12419.70210310246, -22894.8024385932, -637.8293797766423, 0.0, 0.0, 0.0, 0.024, -0.024, 1.018, 192.0, 0.0, 0.0, 0.0, 0.0, 0.0, 0.0, 0.0, 0.0, 0.0, 1.6863613919267693E9, 0.0, 2023-06-09 18:43:11.926
108.0, 22928.59827620963, -45065.40835683446, -12429.358056707151, -22893.729554859347, -636.7564960427876, 0.0, 0.0, 0.0, 0.024, -0.024, 1.018, 192.0, 0.0, 0.0, 0.0, 0.0, 0.0, 0.0, 0.0, 0.0, 0.0, 1.6863613919317615E9, 0.0, 2023-06-09 18:43:11.931
109.0, 22925.91606687499, -45060.04393816518, -12433.64959164257, -22909.82281086717, -637.292937909715, 0.0, 0.0, 0.0, 0.024, -0.024, 1.018, 192.0, 0.0, 0.0, 0.0, 0.0, 0.0, 0.0, 0.0, 0.0, 0.0, 1.6863613919356797E9, 0.0, 2023-06-09 18:43:11.935
110.0, 22924.30674127421, -45060.58038003211, -12422.384312437098, -22899.63041539555, -637.8293797766423, 0.0, 0.0, 0.0, 0.024, -0.024, 1.018, 192.0, 0.0, 0.0, 0.0, 0.0, 0.0, 0.0, 0.0, 0.0, 0.0, 1.6863613919396996E9, 0.0, 2023-06-09 18:43:11.939
111.0, 22930.744043677336, -45063.26258936675, -12430.430940441005, -22881.39139192002, -636.7564960427876, 0.0, 0.0, 0.0, 0.024, -0.024, 1.018, 192.0, 0.0, 0.0, 0.0, 0.0, 0.0, 0.0, 0.0, 0.0, 0.0, 1.686361391943728E9, 0.0, 2023-06-09 18:43:11.943
112.0, 22929.671159943482, -45063.79903123368, -12444.914870848046, -22880.85495005309, -636.7564960427876, 0.0, 0.0, 0.0, 0.024, -0.024, 1.018, 192.0, 0.0, 0.0, 0.0, 0.0, 0.0, 0.0, 0.0, 0.0, 0.0, 1.6863613919477391E9, 0.0, 2023-06-09 18:43:11.947
113.0, 22917.86943887108, -45067.01768243524, -12444.914870848046, -22893.729554859347, -638.3658216435697, 0.0, 0.0, 0.0, 0.024, -0.024, 1.018, 192.0, 0.0, 0.0, 0.0, 0.0, 0.0, 0.0, 0.0, 0.0, 0.0, 1.6863613919517057E9, 0.0, 2023-06-09 18:43:11.951
114.0, 22912.505020201806, -45065.944798701385, -12426.139405505586, -22876.56341511767, -636.2200541758602, 0.0, 0.0, 0.0, 0.024, -0.024, 1.018, 192.0, 0.0, 0.0, 0.0, 0.0, 0.0, 0.0, 0.0, 0.0, 0.0, 1.6863613919547396E9, 0.0, 2023-06-09 18:43:11.954
115.0, 22921.088090072644, -45069.69989176988, -12419.16566123553, -22873.881205783036, -636.7564960427876, 0.0, 0.0, 0.0, 0.034, -0.022, 1.01, 192.0, 1.0, 16.0, 255.0, 80.0, 31.0, 144.0, 0.0, 0.0, 0.0, 1.6863613919598415E9, 0.0, 2023-06-09 18:43:11.959
116.0, 22929.134718076555, -45067.554124302165, -12428.285172973297, -22876.026973250744, -637.8293797766423, 0.0, 0.0, 0.0, 0.034, -0.022, 1.01, 192.0, 0.0, 0.0, 0.0, 0.0, 0.0, 0.0, 0.0, 0.0, 0.0, 1.686361391963792E9, 0.0, 2023-06-09 18:43:11.963
117.0, 22928.0618343427, -45063.79903123368, -12427.212289239442, -22886.219368722363, -636.7564960427876, 0.0, 0.0, 0.0, 0.034, -0.022, 1.01, 192.0, 0.0, 0.0, 0.0, 0.0, 0.0, 0.0, 0.0, 0.0, 0.0, 1.686361391967736E9, 0.0, 2023-06-09 18:43:11.967
118.0, 22926.452508741917, -45063.26258936675, -12428.821614840224, -22879.24562445231, -636.7564960427876, 0.0, 0.0, 0.0, 0.034, -0.022, 1.01, 192.0, 0.0, 0.0, 0.0, 0.0, 0.0, 0.0, 0.0, 0.0, 0.0, 1.6863613919717612E9, 0.0, 2023-06-09 18:43:11.971
119.0, 22928.59827620963, -45067.554124302165, -12441.159777779554, -22856.178624174434, -637.8293797766423, 0.0, 0.0, 0.0, 0.034, -0.022, 1.01, 192.0, 0.0, 0.0, 0.0, 0.0, 0.0, 0.0, 0.0, 0.0, 0.0, 1.6863613919758365E9, 0.0, 2023-06-09 18:43:11.975
120.0, 22929.134718076555, -45064.3354731006, -12443.305545247262, -22858.86083350907, -636.7564960427876, 0.0, 0.0, 0.0, 0.034, -0.022, 1.01, 192.0, 0.0, 0.0, 0.0, 0.0, 0.0, 0.0, 0.0, 0.0, 0.0, 1.686361391979833E9, 0.0, 2023-06-09 18:43:11.979
121.0, 22927.52539247577, -45060.58038003211, -12428.821614840224, -22885.14648498851, -638.902263510497, 0.0, 0.0, 0.0, 0.034, -0.022, 1.01, 192.0, 0.0, 0.0, 0.0, 0.0, 0.0, 0.0, 0.0, 0.0, 0.0, 1.6863613919828565E9, 0.0, 2023-06-09 18:43:11.982
122.0, 22921.088090072644, -45058.97105443133, -12428.285172973297, -22883.0007175208, -638.902263510497, 0.0, 0.0, 0.0, 0.034, -0.022, 1.01, 192.0, 0.0, 0.0, 0.0, 0.0, 0.0, 0.0, 0.0, 0.0, 0.0, 1.686361391986879E9, 0.0, 2023-06-09 18:43:11.986
123.0, 22926.452508741917, -45063.26258936675, -12435.79535911028, -22861.543042843707, -637.8293797766423, 0.0, 0.0, 0.0, 0.034, -0.022, 1.01, 192.0, 0.0, 0.0, 0.0, 0.0, 0.0, 0.0, 0.0, 0.0, 0.0, 1.6863613919917965E9, 0.0, 2023-06-09 18:43:11.991
124.0, 22929.134718076555, -45064.3354731006, -12433.64959164257, -22858.32439164214, -636.7564960427876, 0.0, 0.0, 0.0, 0.034, -0.022, 1.01, 192.0, 0.0, 0.0, 0.0, 0.0, 0.0, 0.0, 0.0, 0.0, 0.0, 1.6863613919957972E9, 0.0, 2023-06-09 18:43:11.995
125.0, 22927.52539247577, -45061.65326376597, -12432.04026604179, -22867.443903379906, -637.292937909715, 0.0, 0.0, 0.0, 0.026000000000000002, -0.02, 1.002, 192.0, 0.0, 208.0, 255.0, 96.0, 31.0, 80.0, 0.0, 0.0, 0.0, 1.6863613919998116E9, 0.0, 2023-06-09 18:43:11.999
126.0, 22933.426253011974, -45061.65326376597, -12440.623335912627, -22865.834577779126, -638.3658216435697, 0.0, 0.0, 0.0, 0.026000000000000002, -0.02, 1.002, 192.0, 0.0, 0.0, 0.0, 0.0, 0.0, 0.0, 0.0, 0.0, 0.0, 1.6863613920038896E9, 0.0, 2023-06-09 18:43:12.003
127.0, 22930.207601810413, -45062.72614749982, -12446.524196448827, -22854.569298573653, -638.3658216435697, 0.0, 0.0, 0.0, 0.026000000000000002, -0.02, 1.002, 192.0, 0.0, 0.0, 0.0, 0.0, 0.0, 0.0, 0.0, 0.0, 0.0, 1.6863613920068512E9, 0.0, 2023-06-09 18:43:12.006
128.0, 22929.671159943482, -45061.65326376597, -12407.363940163128, -22859.397275375995, -638.902263510497, 0.0, 0.0, 0.0, 0.026000000000000002, -0.02, 1.002, 192.0, 0.0, 0.0, 0.0, 0.0, 0.0, 0.0, 0.0, 0.0, 0.0, 1.686361392010876E9, 0.0, 2023-06-09 18:43:12.010
129.0, 22928.0618343427, -45062.72614749982, -12413.26480069933, -22870.126112714544, -637.8293797766423, 0.0, 0.0, 0.0, 0.026000000000000002, -0.02, 1.002, 192.0, 0.0, 0.0, 0.0, 0.0, 0.0, 0.0, 0.0, 0.0, 0.0, 1.6863613920149405E9, 0.0, 2023-06-09 18:43:12.014
130.0, 22925.379625008063, -45064.87191496753, -12438.477568444918, -22872.271880182252, -637.8293797766423, 0.0, 0.0, 0.0, 0.026000000000000002, -0.02, 1.002, 192.0, 0.0, 0.0, 0.0, 0.0, 0.0, 0.0, 0.0, 0.0, 0.0, 1.686361392018938E9, 0.0, 2023-06-09 18:43:12.018
131.0, 22928.59827620963, -45064.3354731006, -12434.186033509499, -22852.95997297287, -636.7564960427876, 0.0, 0.0, 0.0, 0.026000000000000002, -0.02, 1.002, 192.0, 0.0, 0.0, 0.0, 0.0, 0.0, 0.0, 0.0, 0.0, 0.0, 1.6863613920238812E9, 0.0, 2023-06-09 18:43:12.023
132.0, 22932.35336927812, -45063.26258936675, -12440.623335912627, -22851.350647372088, -636.7564960427876, 0.0, 0.0, 0.0, 0.026000000000000002, -0.02, 1.002, 192.0, 0.0, 0.0, 0.0, 0.0, 0.0, 0.0, 0.0, 0.0, 0.0, 1.686361392027872E9, 0.0, 2023-06-09 18:43:12.027
133.0, 22924.843183141136, -45063.26258936675, -12441.159777779554, -22866.371019646052, -637.8293797766423, 0.0, 0.0, 0.0, 0.026000000000000002, -0.02, 1.002, 192.0, 0.0, 0.0, 0.0, 0.0, 0.0, 0.0, 0.0, 0.0, 0.0, 1.6863613920309105E9, 0.0, 2023-06-09 18:43:12.030
134.0, 22923.233857540356, -45064.87191496753, -12424.530079904805, -22877.0998569846, -638.902263510497, 0.0, 0.0, 0.0, 0.026000000000000002, -0.02, 1.002, 192.0, 0.0, 0.0, 0.0, 0.0, 0.0, 0.0, 0.0, 0.0, 0.0, 1.686361392034886E9, 0.0, 2023-06-09 18:43:12.034
135.0, 22931.816927411193, -45064.3354731006, -12427.74873110637, -22862.61592657756, -637.8293797766423, 0.0, 0.0, 0.0, 0.032, -0.022, 0.998, 192.0, 1.0, 0.0, 255.0, 80.0, 31.0, 48.0, 0.0, 0.0, 0.0, 1.6863613920389132E9, 0.0, 2023-06-09 18:43:12.038
136.0, 22929.134718076555, -45064.3354731006, -12440.623335912627, -22852.423531105942, -635.6836123089329, 0.0, 0.0, 0.0, 0.032, -0.022, 0.998, 192.0, 0.0, 0.0, 0.0, 0.0, 0.0, 0.0, 0.0, 0.0, 0.0, 1.6863613920428758E9, 0.0, 2023-06-09 18:43:12.042
137.0, 22925.91606687499, -45060.58038003211, -12434.186033509499, -22861.00660097678, -636.7564960427876, 0.0, 0.0, 0.0, 0.032, -0.022, 0.998, 192.0, 0.0, 0.0, 0.0, 0.0, 0.0, 0.0, 0.0, 0.0, 0.0, 1.6863613920469055E9, 0.0, 2023-06-09 18:43:12.046
138.0, 22929.134718076555, -45062.18970563289, -12443.305545247262, -22877.0998569846, -638.3658216435697, 0.0, 0.0, 0.0, 0.032, -0.022, 0.998, 192.0, 0.0, 0.0, 0.0, 0.0, 0.0, 0.0, 0.0, 0.0, 0.0, 1.6863613920519013E9, 0.0, 2023-06-09 18:43:12.051
139.0, 22926.988950608844, -45065.944798701385, -12442.232661513408, -22866.90746151298, -636.7564960427876, 0.0, 0.0, 0.0, 0.032, -0.022, 0.998, 192.0, 0.0, 0.0, 0.0, 0.0, 0.0, 0.0, 0.0, 0.0, 0.0, 1.686361392055918E9, 0.0, 2023-06-09 18:43:12.055
140.0, 22930.744043677336, -45062.72614749982, -12430.430940441005, -22858.32439164214, -637.8293797766423, 0.0, 0.0, 0.0, 0.032, -0.022, 0.998, 192.0, 0.0, 0.0, 0.0, 0.0, 0.0, 0.0, 0.0, 0.0, 0.0, 1.686361392058952E9, 0.0, 2023-06-09 18:43:12.058
141.0, 22929.671159943482, -45057.898170697474, -12430.967382307936, -22869.589670847618, -638.3658216435697, 0.0, 0.0, 0.0, 0.032, -0.022, 0.998, 192.0, 0.0, 0.0, 0.0, 0.0, 0.0, 0.0, 0.0, 0.0, 0.0, 1.6863613920629475E9, 0.0, 2023-06-09 18:43:12.062
142.0, 22924.30674127421, -45058.4346125644, -12438.477568444918, -22884.073601254655, -639.4387053774244, 0.0, 0.0, 0.0, 0.032, -0.022, 0.998, 192.0, 0.0, 0.0, 0.0, 0.0, 0.0, 0.0, 0.0, 0.0, 0.0, 1.686361392067018E9, 0.0, 2023-06-09 18:43:12.067
143.0, 22930.744043677336, -45060.04393816518, -12435.258917243355, -22874.95408951689, -637.8293797766423, 0.0, 0.0, 0.0, 0.032, -0.022, 0.998, 192.0, 0.0, 0.0, 0.0, 0.0, 0.0, 0.0, 0.0, 0.0, 0.0, 1.6863613920709631E9, 0.0, 2023-06-09 18:43:12.070
144.0, 22934.499136745828, -45057.36172883055, -12436.331800977208, -22849.741321771304, -638.3658216435697, 0.0, 0.0, 0.0, 0.03, -0.022, 0.994, 192.0, 0.0, 240.0, 255.0, 80.0, 31.0, 16.0, 0.0, 0.0, 0.0, 1.6863613920749283E9, 0.0, 2023-06-09 18:43:12.074
145.0, 22931.816927411193, -45058.4346125644, -12445.451312714973, -22857.787949775215, -637.8293797766423, 0.0, 0.0, 0.0, 0.03, -0.022, 0.994, 192.0, 0.0, 0.0, 0.0, 0.0, 0.0, 0.0, 0.0, 0.0, 0.0, 1.6863613920799527E9, 0.0, 2023-06-09 18:43:12.079
146.0, 22926.452508741917, -45061.65326376597, -12423.457196170952, -22884.073601254655, -638.3658216435697, 0.0, 0.0, 0.0, 0.03, -0.022, 0.994, 192.0, 0.0, 0.0, 0.0, 0.0, 0.0, 0.0, 0.0, 0.0, 0.0, 1.6863613920839791E9, 0.0, 2023-06-09 18:43:12.083
147.0, 22918.405880738006, -45063.26258936675, -12433.113149775643, -22891.047345524712, -636.7564960427876, 0.0, 0.0, 0.0, 0.03, -0.022, 0.994, 192.0, 0.0, 0.0, 0.0, 0.0, 0.0, 0.0, 0.0, 0.0, 0.0, 1.6863613920869832E9, 0.0, 2023-06-09 18:43:12.086
148.0, 22920.01520633879, -45060.58038003211, -12443.841987114192, -22881.39139192002, -636.2200541758602, 0.0, 0.0, 0.0, 0.03, -0.022, 0.994, 192.0, 0.0, 0.0, 0.0, 0.0, 0.0, 0.0, 0.0, 0.0, 0.0, 1.686361392091024E9, 0.0, 2023-06-09 18:43:12.091
149.0, 22931.280485544266, -45057.898170697474, -12440.623335912627, -22877.0998569846, -637.8293797766423, 0.0, 0.0, 0.0, 0.03, -0.022, 0.994, 192.0, 0.0, 0.0, 0.0, 0.0, 0.0, 0.0, 0.0, 0.0, 0.0, 1.6863613920950124E9, 0.0, 2023-06-09 18:43:12.095
150.0, 22925.91606687499, -45059.50749629826, -12442.232661513408, -22890.510903657785, -637.8293797766423, 0.0, 0.0, 0.0, 0.03, -0.022, 0.994, 192.0, 0.0, 0.0, 0.0, 0.0, 0.0, 0.0, 0.0, 0.0, 0.0, 1.6863613920989878E9, 0.0, 2023-06-09 18:43:12.098
151.0, 22923.233857540356, -45059.50749629826, -12428.285172973297, -22895.875322327058, -637.292937909715, 0.0, 0.0, 0.0, 0.03, -0.022, 0.994, 192.0, 0.0, 0.0, 0.0, 0.0, 0.0, 0.0, 0.0, 0.0, 0.0, 1.6863613921029792E9, 0.0, 2023-06-09 18:43:12.102
152.0, 22927.52539247577, -45059.50749629826, -12428.821614840224, -22878.172740718455, -636.7564960427876, 0.0, 0.0, 0.0, 0.03, -0.022, 0.994, 192.0, 0.0, 0.0, 0.0, 0.0, 0.0, 0.0, 0.0, 0.0, 0.0, 1.6863613921080575E9, 0.0, 2023-06-09 18:43:12.108
153.0, 22925.379625008063, -45058.4346125644, -12438.477568444918, -22866.371019646052, -637.8293797766423, 0.0, 0.0, 0.0, 0.03, -0.022, 0.994, 192.0, 0.0, 0.0, 0.0, 0.0, 0.0, 0.0, 0.0, 0.0, 0.0, 1.6863613921120248E9, 0.0, 2023-06-09 18:43:12.112
154.0, 22926.988950608844, -45057.36172883055, -12447.59708018268, -22879.782066319236, -637.292937909715, 0.0, 0.0, 0.0, 0.03, -0.024, 0.994, 192.0, 0.0, 240.0, 255.0, 64.0, 31.0, 16.0, 0.0, 0.0, 0.0, 1.6863613921149876E9, 0.0, 2023-06-09 18:43:12.114
155.0, 22922.697415673425, -45056.82528696362, -12443.841987114192, -22896.411764193985, -637.292937909715, 0.0, 0.0, 0.0, 0.03, -0.024, 0.994, 192.0, 0.0, 0.0, 0.0, 0.0, 0.0, 0.0, 0.0, 0.0, 0.0, 1.686361392119044E9, 0.0, 2023-06-09 18:43:12.119
156.0, 22926.988950608844, -45056.82528696362, -12437.941126577989, -22879.24562445231, -636.2200541758602, 0.0, 0.0, 0.0, 0.03, -0.024, 0.994, 192.0, 0.0, 0.0, 0.0, 0.0, 0.0, 0.0, 0.0, 0.0, 0.0, 1.686361392123046E9, 0.0, 2023-06-09 18:43:12.123
157.0, 22924.843183141136, -45055.21596136284, -12445.9877545819, -22869.589670847618, -635.6836123089329, 0.0, 0.0, 0.0, 0.03, -0.024, 0.994, 192.0, 0.0, 0.0, 0.0, 0.0, 0.0, 0.0, 0.0, 0.0, 0.0, 1.6863613921270432E9, 0.0, 2023-06-09 18:43:12.127
158.0, 22922.697415673425, -45059.50749629826, -12439.550452178773, -22877.0998569846, -636.7564960427876, 0.0, 0.0, 0.0, 0.03, -0.024, 0.994, 192.0, 0.0, 0.0, 0.0, 0.0, 0.0, 0.0, 0.0, 0.0, 0.0, 1.6863613921310613E9, 0.0, 2023-06-09 18:43:12.131
159.0, 22925.379625008063, -45061.65326376597, -12439.014010311843, -22899.63041539555, -637.292937909715, 0.0, 0.0, 0.0, 0.03, -0.024, 0.994, 192.0, 0.0, 0.0, 0.0, 0.0, 0.0, 0.0, 0.0, 0.0, 0.0, 1.686361392136062E9, 0.0, 2023-06-09 18:43:12.136
160.0, 22925.379625008063, -45059.50749629826, -12427.74873110637, -22895.875322327058, -637.8293797766423, 0.0, 0.0, 0.0, 0.03, -0.024, 0.994, 192.0, 0.0, 0.0, 0.0, 0.0, 0.0, 0.0, 0.0, 0.0, 0.0, 1.6863613921390605E9, 0.0, 2023-06-09 18:43:12.139
161.0, 22925.379625008063, -45061.116821899035, -12432.576707908716, -22880.318508186167, -637.8293797766423, 0.0, 0.0, 0.0, 0.03, -0.024, 0.994, 192.0, 0.0, 0.0, 0.0, 0.0, 0.0, 0.0, 0.0, 0.0, 0.0, 1.6863613921421564E9, 0.0, 2023-06-09 18:43:12.142
162.0, 22926.452508741917, -45057.898170697474, -12434.186033509499, -22885.14648498851, -637.8293797766423, 0.0, 0.0, 0.0, 0.03, -0.024, 0.994, 192.0, 0.0, 0.0, 0.0, 0.0, 0.0, 0.0, 0.0, 0.0, 0.0, 1.6863613921471038E9, 0.0, 2023-06-09 18:43:12.147
163.0, 22921.088090072644, -45061.116821899035, -12445.451312714973, -22895.875322327058, -637.8293797766423, 0.0, 0.0, 0.0, 0.03, -0.024, 0.994, 192.0, 0.0, 0.0, 0.0, 0.0, 0.0, 0.0, 0.0, 0.0, 0.0, 1.6863613921511104E9, 0.0, 2023-06-09 18:43:12.151
164.0, 22917.332997004152, -45062.72614749982, -12437.404684711062, -22886.755810589293, -636.7564960427876, 0.0, 0.0, 0.0, 0.032, -0.024, 1.0, 192.0, 1.0, 0.0, 255.0, 64.0, 31.0, 64.0, 0.0, 0.0, 0.0, 1.686361392155094E9, 0.0, 2023-06-09 18:43:12.155
165.0, 22921.088090072644, -45060.58038003211, -12446.524196448827, -22865.834577779126, -636.7564960427876, 0.0, 0.0, 0.0, 0.032, -0.024, 1.0, 192.0, 0.0, 0.0, 0.0, 0.0, 0.0, 0.0, 0.0, 0.0, 0.0, 1.6863613921590621E9, 0.0, 2023-06-09 18:43:12.159
166.0, 22914.650787669518, -45056.82528696362, -12449.206405783465, -22864.76169404527, -636.7564960427876, 0.0, 0.0, 0.0, 0.032, -0.024, 1.0, 192.0, 0.0, 0.0, 0.0, 0.0, 0.0, 0.0, 0.0, 0.0, 0.0, 1.6863613921640902E9, 0.0, 2023-06-09 18:43:12.164
167.0, 22920.551648205714, -45057.36172883055, -12437.404684711062, -22885.68292685544, -636.7564960427876, 0.0, 0.0, 0.0, 0.032, -0.024, 1.0, 192.0, 0.0, 0.0, 0.0, 0.0, 0.0, 0.0, 0.0, 0.0, 0.0, 1.686361392167137E9, 0.0, 2023-06-09 18:43:12.167
168.0, 22926.988950608844, -45056.28884509669, -12430.430940441005, -22890.510903657785, -638.3658216435697, 0.0, 0.0, 0.0, 0.032, -0.024, 1.0, 192.0, 0.0, 0.0, 0.0, 0.0, 0.0, 0.0, 0.0, 0.0, 0.0, 1.6863613921706605E9, 0.0, 2023-06-09 18:43:12.170
169.0, 22926.988950608844, -45057.898170697474, -12456.716591920449, -22870.66255458147, -637.8293797766423, 0.0, 0.0, 0.0, 0.032, -0.024, 1.0, 192.0, 0.0, 0.0, 0.0, 0.0, 0.0, 0.0, 0.0, 0.0, 0.0, 1.686361392175066E9, 0.0, 2023-06-09 18:43:12.175
170.0, 22918.942322604933, -45064.3354731006, -12441.159777779554, -22872.271880182252, -637.8293797766423, 0.0, 0.0, 0.0, 0.032, -0.024, 1.0, 192.0, 0.0, 0.0, 0.0, 0.0, 0.0, 0.0, 0.0, 0.0, 0.0, 1.686361392179094E9, 0.0, 2023-06-09 18:43:12.179
171.0, 22921.088090072644, -45064.3354731006, -12449.206405783465, -22883.0007175208, -638.902263510497, 0.0, 0.0, 0.0, 0.032, -0.024, 1.0, 192.0, 0.0, 0.0, 0.0, 0.0, 0.0, 0.0, 0.0, 0.0, 0.0, 1.6863613921831317E9, 0.0, 2023-06-09 18:43:12.183
172.0, 22926.988950608844, -45061.65326376597, -12445.9877545819, -22885.68292685544, -637.8293797766423, 0.0, 0.0, 0.0, 0.032, -0.024, 1.0, 192.0, 0.0, 0.0, 0.0, 0.0, 0.0, 0.0, 0.0, 0.0, 0.0, 1.686361392187092E9, 0.0, 2023-06-09 18:43:12.187
173.0, 22925.379625008063, -45060.58038003211, -12434.186033509499, -22870.66255458147, -637.292937909715, 0.0, 0.0, 0.0, 0.032, -0.024, 1.0, 192.0, 0.0, 0.0, 0.0, 0.0, 0.0, 0.0, 0.0, 0.0, 0.0, 1.68636139219211E9, 0.0, 2023-06-09 18:43:12.192
174.0, 22915.72367140337, -45055.752403229766, -12427.74873110637, -22872.271880182252, -636.7564960427876, 0.0, 0.0, 0.0, 0.03, -0.02, 0.998, 192.0, 0.0, 240.0, 255.0, 96.0, 31.0, 48.0, 0.0, 0.0, 0.0, 1.6863613921951563E9, 0.0, 2023-06-09 18:43:12.195
175.0, 22921.62453193957, -45055.21596136284, -12436.331800977208, -22885.68292685544, -638.3658216435697, 0.0, 0.0, 0.0, 0.03, -0.02, 0.998, 192.0, 0.0, 0.0, 0.0, 0.0, 0.0, 0.0, 0.0, 0.0, 0.0, 1.6863613921981745E9, 0.0, 2023-06-09 18:43:12.198
176.0, 22921.62453193957, -45059.50749629826, -12446.524196448827, -22896.411764193985, -638.902263510497, 0.0, 0.0, 0.0, 0.03, -0.02, 0.998, 192.0, 0.0, 0.0, 0.0, 0.0, 0.0, 0.0, 0.0, 0.0, 0.0, 1.6863613922031472E9, 0.0, 2023-06-09 18:43:12.203
177.0, 22920.551648205714, -45059.50749629826, -12444.914870848046, -22881.39139192002, -637.292937909715, 0.0, 0.0, 0.0, 0.03, -0.02, 0.998, 192.0, 0.0, 0.0, 0.0, 0.0, 0.0, 0.0, 0.0, 0.0, 0.0, 1.6863613922071571E9, 0.0, 2023-06-09 18:43:12.207
178.0, 22921.088090072644, -45059.50749629826, -12455.107266319665, -22881.39139192002, -636.7564960427876, 0.0, 0.0, 0.0, 0.03, -0.02, 0.998, 192.0, 0.0, 0.0, 0.0, 0.0, 0.0, 0.0, 0.0, 0.0, 0.0, 1.6863613922111504E9, 0.0, 2023-06-09 18:43:12.211
179.0, 22920.01520633879, -45058.4346125644, -12443.305545247262, -22893.19311299242, -637.8293797766423, 0.0, 0.0, 0.0, 0.03, -0.02, 0.998, 192.0, 0.0, 0.0, 0.0, 0.0, 0.0, 0.0, 0.0, 0.0, 0.0, 1.6863613922152212E9, 0.0, 2023-06-09 18:43:12.215
180.0, 22917.86943887108, -45056.28884509669, -12440.623335912627, -22905.53127593175, -638.902263510497, 0.0, 0.0, 0.0, 0.03, -0.02, 0.998, 192.0, 0.0, 0.0, 0.0, 0.0, 0.0, 0.0, 0.0, 0.0, 0.0, 1.686361392219154E9, 0.0, 2023-06-09 18:43:12.219
181.0, 22923.77029940728, -45056.82528696362, -12441.159777779554, -22886.755810589293, -637.8293797766423, 0.0, 0.0, 0.0, 0.03, -0.02, 0.998, 192.0, 0.0, 0.0, 0.0, 0.0, 0.0, 0.0, 0.0, 0.0, 0.0, 1.6863613922231967E9, 0.0, 2023-06-09 18:43:12.223
182.0, 22921.088090072644, -45058.97105443133, -12433.113149775643, -22879.782066319236, -638.3658216435697, 0.0, 0.0, 0.0, 0.03, -0.02, 0.998, 192.0, 0.0, 0.0, 0.0, 0.0, 0.0, 0.0, 0.0, 0.0, 0.0, 1.6863613922262256E9, 0.0, 2023-06-09 18:43:12.226
183.0, 22906.06771779868, -45058.97105443133, -12456.180150053518, -22890.510903657785, -639.4387053774244, 0.0, 0.0, 0.0, 0.026000000000000002, -0.016, 0.998, 192.0, 0.0, 208.0, 255.0, 128.0, 31.0, 48.0, 0.0, 0.0, 0.0, 1.6863613922311647E9, 0.0, 2023-06-09 18:43:12.231
184.0, 22920.01520633879, -45060.04393816518, -12445.451312714973, -22903.92195033097, -639.4387053774244, 0.0, 0.0, 0.0, 0.026000000000000002, -0.016, 0.998, 192.0, 0.0, 0.0, 0.0, 0.0, 0.0, 0.0, 0.0, 0.0, 0.0, 1.686361392235206E9, 0.0, 2023-06-09 18:43:12.235
185.0, 22926.452508741917, -45056.28884509669, -12450.279289517319, -22883.0007175208, -637.8293797766423, 0.0, 0.0, 0.0, 0.026000000000000002, -0.016, 0.998, 192.0, 0.0, 0.0, 0.0, 0.0, 0.0, 0.0, 0.0, 0.0, 0.0, 1.6863613922392757E9, 0.0, 2023-06-09 18:43:12.239
186.0, 22921.62453193957, -45057.36172883055, -12434.186033509499, -22864.225252178345, -638.902263510497, 0.0, 0.0, 0.0, 0.026000000000000002, -0.016, 0.998, 192.0, 0.0, 0.0, 0.0, 0.0, 0.0, 0.0, 0.0, 0.0, 0.0, 1.686361392243298E9, 0.0, 2023-06-09 18:43:12.243
187.0, 22924.843183141136, -45060.58038003211, -12442.232661513408, -22865.2981359122, -639.4387053774244, 0.0, 0.0, 0.0, 0.026000000000000002, -0.016, 0.998, 192.0, 0.0, 0.0, 0.0, 0.0, 0.0, 0.0, 0.0, 0.0, 0.0, 1.6863613922463644E9, 0.0, 2023-06-09 18:43:12.246
188.0, 22912.505020201806, -45060.58038003211, -12446.524196448827, -22888.365136190074, -638.902263510497, 0.0, 0.0, 0.0, 0.026000000000000002, -0.016, 0.998, 192.0, 0.0, 0.0, 0.0, 0.0, 0.0, 0.0, 0.0, 0.0, 0.0, 1.6863613922502759E9, 0.0, 2023-06-09 18:43:12.250
189.0, 22913.57790393566, -45059.50749629826, -12452.42505698503, -22887.828694323147, -637.292937909715, 0.0, 0.0, 0.0, 0.026000000000000002, -0.016, 0.998, 192.0, 0.0, 0.0, 0.0, 0.0, 0.0, 0.0, 0.0, 0.0, 0.0, 1.6863613922543015E9, 0.0, 2023-06-09 18:43:12.254
190.0, 22918.942322604933, -45058.97105443133, -12443.305545247262, -22871.1989964484, -638.3658216435697, 0.0, 0.0, 0.0, 0.026000000000000002, -0.016, 0.998, 192.0, 0.0, 0.0, 0.0, 0.0, 0.0, 0.0, 0.0, 0.0, 0.0, 1.6863613922582753E9, 0.0, 2023-06-09 18:43:12.258
191.0, 22922.697415673425, -45058.97105443133, -12453.497940718884, -22869.053228980687, -638.3658216435697, 0.0, 0.0, 0.0, 0.026000000000000002, -0.016, 0.998, 192.0, 0.0, 0.0, 0.0, 0.0, 0.0, 0.0, 0.0, 0.0, 0.0, 1.6863613922632923E9, 0.0, 2023-06-09 18:43:12.263
192.0, 22917.86943887108, -45058.97105443133, -12441.696219646481, -22886.219368722363, -637.8293797766423, 0.0, 0.0, 0.0, 0.026000000000000002, -0.016, 0.998, 192.0, 0.0, 0.0, 0.0, 0.0, 0.0, 0.0, 0.0, 0.0, 0.0, 1.6863613922673118E9, 0.0, 2023-06-09 18:43:12.267
193.0, 22916.2601132703, -45056.28884509669, -12447.060638315756, -22889.438019923928, -638.3658216435697, 0.0, 0.0, 0.0, 0.028, -0.02, 0.998, 192.0, 0.0, 224.0, 255.0, 96.0, 31.0, 48.0, 0.0, 0.0, 0.0, 1.6863613922713454E9, 0.0, 2023-06-09 18:43:12.271
194.0, 22927.52539247577, -45055.752403229766, -12448.133522049611, -22873.881205783036, -638.902263510497, 0.0, 0.0, 0.0, 0.028, -0.02, 0.998, 192.0, 0.0, 0.0, 0.0, 0.0, 0.0, 0.0, 0.0, 0.0, 0.0, 1.686361392275277E9, 0.0, 2023-06-09 18:43:12.275
195.0, 22917.332997004152, -45058.4346125644, -12439.550452178773, -22869.053228980687, -638.902263510497, 0.0, 0.0, 0.0, 0.028, -0.02, 0.998, 192.0, 0.0, 0.0, 0.0, 0.0, 0.0, 0.0, 0.0, 0.0, 0.0, 1.6863613922782545E9, 0.0, 2023-06-09 18:43:12.278
196.0, 22911.432136467953, -45057.36172883055, -12445.9877545819, -22883.0007175208, -639.4387053774244, 0.0, 0.0, 0.0, 0.028, -0.02, 0.998, 192.0, 0.0, 0.0, 0.0, 0.0, 0.0, 0.0, 0.0, 0.0, 0.0, 1.6863613922823255E9, 0.0, 2023-06-09 18:43:12.282
197.0, 22915.18722953644, -45055.21596136284, -12442.769103380337, -22889.438019923928, -639.4387053774244, 0.0, 0.0, 0.0, 0.028, -0.02, 0.998, 192.0, 0.0, 0.0, 0.0, 0.0, 0.0, 0.0, 0.0, 0.0, 0.0, 1.6863613922862854E9, 0.0, 2023-06-09 18:43:12.286
198.0, 22930.744043677336, -45056.82528696362, -12455.643708186593, -22874.417647649963, -636.7564960427876, 0.0, 0.0, 0.0, 0.028, -0.02, 0.998, 192.0, 0.0, 0.0, 0.0, 0.0, 0.0, 0.0, 0.0, 0.0, 0.0, 1.6863613922913325E9, 0.0, 2023-06-09 18:43:12.291
199.0, 22926.452508741917, -45056.82528696362, -12460.471684988937, -22863.15236844449, -636.7564960427876, 0.0, 0.0, 0.0, 0.028, -0.02, 0.998, 192.0, 0.0, 0.0, 0.0, 0.0, 0.0, 0.0, 0.0, 0.0, 0.0, 1.6863613922953277E9, 0.0, 2023-06-09 18:43:12.295
200.0, 22922.697415673425, -45055.21596136284, -12456.180150053518, -22873.34476391611, -637.8293797766423, 0.0, 0.0, 0.0, 0.028, -0.02, 0.998, 192.0, 0.0, 0.0, 0.0, 0.0, 0.0, 0.0, 0.0, 0.0, 0.0, 1.68636139229932E9, 0.0, 2023-06-09 18:43:12.299
201.0, 22913.57790393566, -45056.28884509669, -12432.576707908716, -22888.365136190074, -637.292937909715, 0.0, 0.0, 0.0, 0.028, -0.02, 0.998, 192.0, 0.0, 0.0, 0.0, 0.0, 0.0, 0.0, 0.0, 0.0, 0.0, 1.686361392302316E9, 0.0, 2023-06-09 18:43:12.302
202.0, 22914.650787669518, -45058.97105443133, -12441.159777779554, -22873.34476391611, -636.2200541758602, 0.0, 0.0, 0.0, 0.028, -0.02, 0.998, 192.0, 0.0, 0.0, 0.0, 0.0, 0.0, 0.0, 0.0, 0.0, 0.0, 1.686361392306324E9, 0.0, 2023-06-09 18:43:12.306
203.0, 22904.994834064822, -45060.58038003211, -12445.451312714973, -22867.443903379906, -636.7564960427876, 0.0, 0.0, 0.0, 0.028, -0.02, 0.998, 192.0, 0.0, 224.0, 255.0, 96.0, 31.0, 48.0, 0.0, 0.0, 0.0, 1.686361392310361E9, 0.0, 2023-06-09 18:43:12.310
204.0, 22929.671159943482, -45061.116821899035, -12453.497940718884, -22874.95408951689, -638.3658216435697, 0.0, 0.0, 0.0, 0.028, -0.02, 0.998, 192.0, 0.0, 0.0, 0.0, 0.0, 0.0, 0.0, 0.0, 0.0, 0.0, 1.6863613923143437E9, 0.0, 2023-06-09 18:43:12.314
205.0, 22927.52539247577, -45055.21596136284, -12463.690336190502, -22892.656671125493, -638.902263510497, 0.0, 0.0, 0.0, 0.028, -0.02, 0.998, 192.0, 0.0, 0.0, 0.0, 0.0, 0.0, 0.0, 0.0, 0.0, 0.0, 1.6863613923193529E9, 0.0, 2023-06-09 18:43:12.319
206.0, 22918.405880738006, -45053.60663576205, -12462.081010589722, -22877.636298851525, -635.1471704420055, 0.0, 0.0, 0.0, 0.028, -0.02, 0.998, 192.0, 0.0, 0.0, 0.0, 0.0, 0.0, 0.0, 0.0, 0.0, 0.0, 1.6863613923233838E9, 0.0, 2023-06-09 18:43:12.323
207.0, 22916.2601132703, -45056.82528696362, -12452.42505698503, -22867.443903379906, -637.292937909715, 0.0, 0.0, 0.0, 0.028, -0.02, 0.998, 192.0, 0.0, 0.0, 0.0, 0.0, 0.0, 0.0, 0.0, 0.0, 0.0, 1.6863613923274531E9, 0.0, 2023-06-09 18:43:12.327
208.0, 22916.796555137225, -45061.116821899035, -12458.32591752123, -22874.95408951689, -637.292937909715, 0.0, 0.0, 0.0, 0.028, -0.02, 0.998, 192.0, 0.0, 0.0, 0.0, 0.0, 0.0, 0.0, 0.0, 0.0, 0.0, 1.6863613923304331E9, 0.0, 2023-06-09 18:43:12.330
209.0, 22913.57790393566, -45057.898170697474, -12447.060638315756, -22891.047345524712, -636.2200541758602, 0.0, 0.0, 0.0, 0.028, -0.02, 0.998, 192.0, 0.0, 0.0, 0.0, 0.0, 0.0, 0.0, 0.0, 0.0, 0.0, 1.6863613923343873E9, 0.0, 2023-06-09 18:43:12.334
210.0, 22913.041462068733, -45057.36172883055, -12451.352173251174, -22881.39139192002, -636.2200541758602, 0.0, 0.0, 0.0, 0.028, -0.02, 0.998, 192.0, 0.0, 0.0, 0.0, 0.0, 0.0, 0.0, 0.0, 0.0, 0.0, 1.6863613923384137E9, 0.0, 2023-06-09 18:43:12.338
211.0, 22922.697415673425, -45056.28884509669, -12447.59708018268, -22871.73543831533, -637.8293797766423, 0.0, 0.0, 0.0, 0.028, -0.02, 0.998, 192.0, 0.0, 0.0, 0.0, 0.0, 0.0, 0.0, 0.0, 0.0, 0.0, 1.6863613923424463E9, 0.0, 2023-06-09 18:43:12.342
212.0, 22920.551648205714, -45053.60663576205, -12444.378428981117, -22877.636298851525, -637.292937909715, 0.0, 0.0, 0.0, 0.028, -0.02, 0.998, 192.0, 0.0, 0.0, 0.0, 0.0, 0.0, 0.0, 0.0, 0.0, 0.0, 1.6863613923463883E9, 0.0, 2023-06-09 18:43:12.346
213.0, 22917.86943887108, -45053.60663576205, -12458.862359388157, -22896.411764193985, -638.3658216435697, 0.0, 0.0, 0.0, 0.024, -0.026000000000000002, 1.002, 192.0, 0.0, 192.0, 255.0, 48.0, 31.0, 80.0, 0.0, 0.0, 0.0, 1.686361392351483E9, 0.0, 2023-06-09 18:43:12.351
214.0, 22915.72367140337, -45054.14307762898, -12451.352173251174, -22894.8024385932, -637.8293797766423, 0.0, 0.0, 0.0, 0.024, -0.026000000000000002, 1.002, 192.0, 0.0, 0.0, 0.0, 0.0, 0.0, 0.0, 0.0, 0.0, 0.0, 1.6863613923544483E9, 0.0, 2023-06-09 18:43:12.354
215.0, 22916.2601132703, -45056.28884509669, -12450.815731384246, -22883.537159387728, -637.292937909715, 0.0, 0.0, 0.0, 0.024, -0.026000000000000002, 1.002, 192.0, 0.0, 0.0, 0.0, 0.0, 0.0, 0.0, 0.0, 0.0, 0.0, 1.6863613923585432E9, 0.0, 2023-06-09 18:43:12.358
216.0, 22920.01520633879, -45056.82528696362, -12462.081010589722, -22875.490531383817, -637.8293797766423, 0.0, 0.0, 0.0, 0.024, -0.026000000000000002, 1.002, 192.0, 0.0, 0.0, 0.0, 0.0, 0.0, 0.0, 0.0, 0.0, 0.0, 1.6863613923624468E9, 0.0, 2023-06-09 18:43:12.362
217.0, 22917.332997004152, -45058.4346125644, -12461.008126855868, -22889.97446179086, -639.4387053774244, 0.0, 0.0, 0.0, 0.024, -0.026000000000000002, 1.002, 192.0, 0.0, 0.0, 0.0, 0.0, 0.0, 0.0, 0.0, 0.0, 0.0, 1.6863613923664744E9, 0.0, 2023-06-09 18:43:12.366
218.0, 22920.01520633879, -45055.21596136284, -12451.352173251174, -22896.411764193985, -639.4387053774244, 0.0, 0.0, 0.0, 0.024, -0.026000000000000002, 1.002, 192.0, 0.0, 0.0, 0.0, 0.0, 0.0, 0.0, 0.0, 0.0, 0.0, 1.686361392370567E9, 0.0, 2023-06-09 18:43:12.370
219.0, 22915.72367140337, -45051.46086829434, -12466.37254552514, -22885.68292685544, -637.8293797766423, 0.0, 0.0, 0.0, 0.024, -0.026000000000000002, 1.002, 192.0, 0.0, 0.0, 0.0, 0.0, 0.0, 0.0, 0.0, 0.0, 0.0, 1.686361392374463E9, 0.0, 2023-06-09 18:43:12.374
220.0, 22917.332997004152, -45052.533752028205, -12453.497940718884, -22888.365136190074, -636.2200541758602, 0.0, 0.0, 0.0, 0.024, -0.026000000000000002, 1.002, 192.0, 0.0, 0.0, 0.0, 0.0, 0.0, 0.0, 0.0, 0.0, 0.0, 1.686361392378472E9, 0.0, 2023-06-09 18:43:12.378
221.0, 22928.59827620963, -45056.28884509669, -12446.524196448827, -22902.849066597115, -636.2200541758602, 0.0, 0.0, 0.0, 0.024, -0.026000000000000002, 1.002, 192.0, 0.0, 0.0, 0.0, 0.0, 0.0, 0.0, 0.0, 0.0, 0.0, 1.6863613923825307E9, 0.0, 2023-06-09 18:43:12.382
222.0, 22918.942322604933, -45055.21596136284, -12451.352173251174, -22906.604159665603, -637.8293797766423, 0.0, 0.0, 0.0, 0.034, -0.018000000000000002, 0.996, 192.0, 1.0, 16.0, 255.0, 112.0, 31.0, 32.0, 0.0, 0.0, 0.0, 1.686361392386542E9, 0.0, 2023-06-09 18:43:12.386
223.0, 22915.72367140337, -45055.21596136284, -12452.961498851955, -22892.656671125493, -637.292937909715, 0.0, 0.0, 0.0, 0.034, -0.018000000000000002, 0.996, 192.0, 0.0, 0.0, 0.0, 0.0, 0.0, 0.0, 0.0, 0.0, 0.0, 1.6863613923916197E9, 0.0, 2023-06-09 18:43:12.391
224.0, 22920.551648205714, -45053.60663576205, -12457.253033787374, -22886.755810589293, -638.902263510497, 0.0, 0.0, 0.0, 0.034, -0.018000000000000002, 0.996, 192.0, 0.0, 0.0, 0.0, 0.0, 0.0, 0.0, 0.0, 0.0, 0.0, 1.686361392394447E9, 0.0, 2023-06-09 18:43:12.394
225.0, 22923.77029940728, -45051.46086829434, -12467.981871125921, -22894.8024385932, -640.5115891112791, 0.0, 0.0, 0.0, 0.034, -0.018000000000000002, 0.996, 192.0, 0.0, 0.0, 0.0, 0.0, 0.0, 0.0, 0.0, 0.0, 0.0, 1.6863613923975582E9, 0.0, 2023-06-09 18:43:12.397
226.0, 22923.77029940728, -45053.60663576205, -12465.299661791287, -22902.312624730184, -637.292937909715, 0.0, 0.0, 0.0, 0.034, -0.018000000000000002, 0.996, 192.0, 0.0, 0.0, 0.0, 0.0, 0.0, 0.0, 0.0, 0.0, 0.0, 1.6863613924024785E9, 0.0, 2023-06-09 18:43:12.402
227.0, 22920.01520633879, -45053.60663576205, -12454.570824452738, -22888.365136190074, -636.7564960427876, 0.0, 0.0, 0.0, 0.034, -0.018000000000000002, 0.996, 192.0, 0.0, 0.0, 0.0, 0.0, 0.0, 0.0, 0.0, 0.0, 0.0, 1.6863613924065905E9, 0.0, 2023-06-09 18:43:12.406
228.0, 22916.2601132703, -45053.07019389513, -12443.841987114192, -22881.927833786947, -637.8293797766423, 0.0, 0.0, 0.0, 0.034, -0.018000000000000002, 0.996, 192.0, 0.0, 0.0, 0.0, 0.0, 0.0, 0.0, 0.0, 0.0, 0.0, 1.6863613924105463E9, 0.0, 2023-06-09 18:43:12.410
229.0, 22911.968578334876, -45054.67951949591, -12453.497940718884, -22889.438019923928, -637.292937909715, 0.0, 0.0, 0.0, 0.034, -0.018000000000000002, 0.996, 192.0, 0.0, 0.0, 0.0, 0.0, 0.0, 0.0, 0.0, 0.0, 0.0, 1.6863613924145553E9, 0.0, 2023-06-09 18:43:12.414
230.0, 22916.796555137225, -45055.21596136284, -12460.471684988937, -22912.505020201806, -637.8293797766423, 0.0, 0.0, 0.0, 0.034, -0.018000000000000002, 0.996, 192.0, 0.0, 0.0, 0.0, 0.0, 0.0, 0.0, 0.0, 0.0, 0.0, 1.6863613924195836E9, 0.0, 2023-06-09 18:43:12.419
231.0, 22913.041462068733, -45055.21596136284, -12458.32591752123, -22906.604159665603, -636.2200541758602, 0.0, 0.0, 0.0, 0.034, -0.018000000000000002, 0.996, 192.0, 0.0, 0.0, 0.0, 0.0, 0.0, 0.0, 0.0, 0.0, 0.0, 1.6863613924225907E9, 0.0, 2023-06-09 18:43:12.422
232.0, 22913.041462068733, -45053.60663576205, -12466.37254552514, -22891.047345524712, -638.3658216435697, 0.0, 0.0, 0.0, 0.032, -0.022, 1.0, 192.0, 1.0, 0.0, 255.0, 80.0, 31.0, 64.0, 0.0, 0.0, 0.0, 1.6863613924255536E9, 0.0, 2023-06-09 18:43:12.425
233.0, 22914.650787669518, -45056.28884509669, -12458.862359388157, -22889.438019923928, -637.8293797766423, 0.0, 0.0, 0.0, 0.032, -0.022, 1.0, 192.0, 0.0, 0.0, 0.0, 0.0, 0.0, 0.0, 0.0, 0.0, 0.0, 1.6863613924305885E9, 0.0, 2023-06-09 18:43:12.430
234.0, 22914.650787669518, -45057.36172883055, -12463.690336190502, -22910.895694601022, -636.7564960427876, 0.0, 0.0, 0.0, 0.032, -0.022, 1.0, 192.0, 0.0, 0.0, 0.0, 0.0, 0.0, 0.0, 0.0, 0.0, 0.0, 1.686361392434566E9, 0.0, 2023-06-09 18:43:12.434
235.0, 22914.650787669518, -45054.67951949591, -12452.961498851955, -22905.53127593175, -636.2200541758602, 0.0, 0.0, 0.0, 0.032, -0.022, 1.0, 192.0, 0.0, 0.0, 0.0, 0.0, 0.0, 0.0, 0.0, 0.0, 0.0, 1.6863613924385889E9, 0.0, 2023-06-09 18:43:12.438
236.0, 22921.62453193957, -45051.99731016127, -12459.398801255084, -22884.610043121582, -638.3658216435697, 0.0, 0.0, 0.0, 0.032, -0.022, 1.0, 192.0, 0.0, 0.0, 0.0, 0.0, 0.0, 0.0, 0.0, 0.0, 0.0, 1.6863613924425724E9, 0.0, 2023-06-09 18:43:12.442
237.0, 22921.62453193957, -45052.533752028205, -12458.862359388157, -22887.828694323147, -637.8293797766423, 0.0, 0.0, 0.0, 0.032, -0.022, 1.0, 192.0, 0.0, 0.0, 0.0, 0.0, 0.0, 0.0, 0.0, 0.0, 0.0, 1.6863613924466264E9, 0.0, 2023-06-09 18:43:12.446
238.0, 22918.405880738006, -45050.92442642742, -12454.570824452738, -22914.114345802587, -636.7564960427876, 0.0, 0.0, 0.0, 0.032, -0.022, 1.0, 192.0, 0.0, 0.0, 0.0, 0.0, 0.0, 0.0, 0.0, 0.0, 0.0, 1.686361392450618E9, 0.0, 2023-06-09 18:43:12.450
239.0, 22913.041462068733, -45049.85154269356, -12461.008126855868, -22910.895694601022, -637.8293797766423, 0.0, 0.0, 0.0, 0.032, -0.022, 1.0, 192.0, 0.0, 0.0, 0.0, 0.0, 0.0, 0.0, 0.0, 0.0, 0.0, 1.6863613924536014E9, 0.0, 2023-06-09 18:43:12.453
240.0, 22910.895694601022, -45051.46086829434, -12470.12763859363, -22890.510903657785, -638.902263510497, 0.0, 0.0, 0.0, 0.032, -0.022, 1.0, 192.0, 0.0, 0.0, 0.0, 0.0, 0.0, 0.0, 0.0, 0.0, 0.0, 1.686361392458583E9, 0.0, 2023-06-09 18:43:12.458
241.0, 22910.895694601022, -45056.82528696362, -12465.299661791287, -22884.073601254655, -637.8293797766423, 0.0, 0.0, 0.0, 0.032, -0.022, 1.0, 192.0, 0.0, 0.0, 0.0, 0.0, 0.0, 0.0, 0.0, 0.0, 0.0, 1.686361392462618E9, 0.0, 2023-06-09 18:43:12.462
242.0, 22908.213485266388, -45056.82528696362, -12456.716591920449, -22903.92195033097, -638.902263510497, 0.0, 0.0, 0.0, 0.026000000000000002, -0.022, 1.0, 192.0, 0.0, 208.0, 255.0, 80.0, 31.0, 64.0, 0.0, 0.0, 0.0, 1.686361392466648E9, 0.0, 2023-06-09 18:43:12.466
243.0, 22908.749927133314, -45055.21596136284, -12462.081010589722, -22911.968578334876, -638.3658216435697, 0.0, 0.0, 0.0, 0.026000000000000002, -0.022, 1.0, 192.0, 0.0, 0.0, 0.0, 0.0, 0.0, 0.0, 0.0, 0.0, 0.0, 1.6863613924706273E9, 0.0, 2023-06-09 18:43:12.470
244.0, 22915.18722953644, -45052.533752028205, -12462.617452456649, -22892.120229258566, -636.2200541758602, 0.0, 0.0, 0.0, 0.026000000000000002, -0.022, 1.0, 192.0, 0.0, 0.0, 0.0, 0.0, 0.0, 0.0, 0.0, 0.0, 0.0, 1.6863613924756956E9, 0.0, 2023-06-09 18:43:12.475
245.0, 22915.18722953644, -45048.24221709278, -12470.66408046056, -22883.537159387728, -636.7564960427876, 0.0, 0.0, 0.0, 0.026000000000000002, -0.022, 1.0, 192.0, 0.0, 0.0, 0.0, 0.0, 0.0, 0.0, 0.0, 0.0, 0.0, 1.6863613924786434E9, 0.0, 2023-06-09 18:43:12.478
246.0, 22918.405880738006, -45053.07019389513, -12451.352173251174, -22893.19311299242, -638.902263510497, 0.0, 0.0, 0.0, 0.026000000000000002, -0.022, 1.0, 192.0, 0.0, 0.0, 0.0, 0.0, 0.0, 0.0, 0.0, 0.0, 0.0, 1.686361392481644E9, 0.0, 2023-06-09 18:43:12.481
247.0, 22917.86943887108, -45053.07019389513, -12451.8886151181, -22909.82281086717, -639.4387053774244, 0.0, 0.0, 0.0, 0.026000000000000002, -0.022, 1.0, 192.0, 0.0, 0.0, 0.0, 0.0, 0.0, 0.0, 0.0, 0.0, 0.0, 1.6863613924866726E9, 0.0, 2023-06-09 18:43:12.486
248.0, 22913.041462068733, -45052.533752028205, -12454.570824452738, -22892.120229258566, -638.3658216435697, 0.0, 0.0, 0.0, 0.026000000000000002, -0.022, 1.0, 192.0, 0.0, 0.0, 0.0, 0.0, 0.0, 0.0, 0.0, 0.0, 0.0, 1.6863613924906356E9, 0.0, 2023-06-09 18:43:12.490
249.0, 22912.505020201806, -45053.60663576205, -12471.736964194413, -22888.365136190074, -637.8293797766423, 0.0, 0.0, 0.0, 0.026000000000000002, -0.022, 1.0, 192.0, 0.0, 0.0, 0.0, 0.0, 0.0, 0.0, 0.0, 0.0, 0.0, 1.6863613924946492E9, 0.0, 2023-06-09 18:43:12.494
250.0, 22911.432136467953, -45052.533752028205, -12474.41917352905, -22896.411764193985, -637.8293797766423, 0.0, 0.0, 0.0, 0.026000000000000002, -0.022, 1.0, 192.0, 0.0, 0.0, 0.0, 0.0, 0.0, 0.0, 0.0, 0.0, 0.0, 1.686361392498701E9, 0.0, 2023-06-09 18:43:12.498
251.0, 22907.67704339946, -45053.60663576205, -12460.471684988937, -22915.18722953644, -637.8293797766423, 0.0, 0.0, 0.0, 0.026000000000000002, -0.022, 1.0, 192.0, 0.0, 0.0, 0.0, 0.0, 0.0, 0.0, 0.0, 0.0, 0.0, 1.6863613925016618E9, 0.0, 2023-06-09 18:43:12.501
252.0, 22906.604159665603, -45052.533752028205, -12475.492057262905, -22901.776182863257, -637.292937909715, 0.0, 0.0, 0.0, 0.024, -0.016, 1.002, 192.0, 0.0, 192.0, 255.0, 128.0, 31.0, 80.0, 0.0, 0.0, 0.0, 1.6863613925056572E9, 0.0, 2023-06-09 18:43:12.505
253.0, 22918.405880738006, -45050.92442642742, -12464.226778057431, -22886.755810589293, -636.7564960427876, 0.0, 0.0, 0.0, 0.024, -0.016, 1.002, 192.0, 0.0, 0.0, 0.0, 0.0, 0.0, 0.0, 0.0, 0.0, 0.0, 1.6863613925097148E9, 0.0, 2023-06-09 18:43:12.509
254.0, 22917.332997004152, -45050.92442642742, -12464.226778057431, -22891.047345524712, -637.8293797766423, 0.0, 0.0, 0.0, 0.024, -0.016, 1.002, 192.0, 0.0, 0.0, 0.0, 0.0, 0.0, 0.0, 0.0, 0.0, 0.0, 1.6863613925136833E9, 0.0, 2023-06-09 18:43:12.513
255.0, 22910.895694601022, -45053.07019389513, -12462.081010589722, -22909.28636900024, -638.902263510497, 0.0, 0.0, 0.0, 0.024, -0.016, 1.002, 192.0, 0.0, 0.0, 0.0, 0.0, 0.0, 0.0, 0.0, 0.0, 0.0, 1.6863613925187051E9, 0.0, 2023-06-09 18:43:12.518
0.0, 22907.140601532534, -45050.38798456049, -12462.081010589722, -22905.53127593175, -636.2200541758602, 0.0, 0.0, 0.0, 0.024, -0.016, 1.002, 192.0, 0.0, 0.0, 0.0, 0.0, 0.0, 0.0, 0.0, 0.0, 0.0, 1.686361392522686E9, 0.0, 2023-06-09 18:43:12.522
1.0, 22905.53127593175, -45054.14307762898, -12463.690336190502, -22894.8024385932, -635.1471704420055, 0.0, 0.0, 0.0, 0.024, -0.016, 1.002, 192.0, 0.0, 0.0, 0.0, 0.0, 0.0, 0.0, 0.0, 0.0, 0.0, 1.6863613925266976E9, 0.0, 2023-06-09 18:43:12.526
2.0, 22910.359252734095, -45056.28884509669, -12459.935243122012, -22896.411764193985, -635.6836123089329, 0.0, 0.0, 0.0, 0.024, -0.016, 1.002, 192.0, 0.0, 0.0, 0.0, 0.0, 0.0, 0.0, 0.0, 0.0, 0.0, 1.6863613925297072E9, 0.0, 2023-06-09 18:43:12.529
3.0, 22911.968578334876, -45056.28884509669, -12462.617452456649, -22917.332997004152, -637.292937909715, 0.0, 0.0, 0.0, 0.024, -0.016, 1.002, 192.0, 0.0, 0.0, 0.0, 0.0, 0.0, 0.0, 0.0, 0.0, 0.0, 1.6863613925337257E9, 0.0, 2023-06-09 18:43:12.533
4.0, 22915.72367140337, -45050.38798456049, -12478.174266597543, -22911.968578334876, -636.7564960427876, 0.0, 0.0, 0.0, 0.024, -0.016, 1.002, 192.0, 0.0, 0.0, 0.0, 0.0, 0.0, 0.0, 0.0, 0.0, 0.0, 1.6863613925378158E9, 0.0, 2023-06-09 18:43:12.537
5.0, 22913.57790393566, -45049.85154269356, -12462.617452456649, -22898.021089794765, -637.8293797766423, 0.0, 0.0, 0.0, 0.024, -0.016, 1.002, 192.0, 0.0, 0.0, 0.0, 0.0, 0.0, 0.0, 0.0, 0.0, 0.0, 1.686361392541722E9, 0.0, 2023-06-09 18:43:12.541
6.0, 22914.114345802587, -45052.533752028205, -12465.299661791287, -22899.093973528623, -636.7564960427876, 0.0, 0.0, 0.0, 0.02, -0.026000000000000002, 1.004, 192.0, 0.0, 160.0, 255.0, 48.0, 31.0, 96.0, 0.0, 0.0, 0.0, 1.6863613925467386E9, 0.0, 2023-06-09 18:43:12.546
7.0, 22918.405880738006, -45053.60663576205, -12460.471684988937, -22920.01520633879, -636.7564960427876, 0.0, 0.0, 0.0, 0.02, -0.026000000000000002, 1.004, 192.0, 0.0, 0.0, 0.0, 0.0, 0.0, 0.0, 0.0, 0.0, 0.0, 1.6863613925507631E9, 0.0, 2023-06-09 18:43:12.550
8.0, 22915.18722953644, -45051.46086829434, -12455.643708186593, -22917.86943887108, -636.7564960427876, 0.0, 0.0, 0.0, 0.02, -0.026000000000000002, 1.004, 192.0, 0.0, 0.0, 0.0, 0.0, 0.0, 0.0, 0.0, 0.0, 0.0, 1.686361392554756E9, 0.0, 2023-06-09 18:43:12.554
9.0, 22913.041462068733, -45051.46086829434, -12459.935243122012, -22903.385508464038, -636.2200541758602, 0.0, 0.0, 0.0, 0.02, -0.026000000000000002, 1.004, 192.0, 0.0, 0.0, 0.0, 0.0, 0.0, 0.0, 0.0, 0.0, 0.0, 1.6863613925577965E9, 0.0, 2023-06-09 18:43:12.557
10.0, 22915.72367140337, -45052.533752028205, -12466.37254552514, -22897.484647927842, -636.7564960427876, 0.0, 0.0, 0.0, 0.02, -0.026000000000000002, 1.004, 192.0, 0.0, 0.0, 0.0, 0.0, 0.0, 0.0, 0.0, 0.0, 0.0, 1.686361392561803E9, 0.0, 2023-06-09 18:43:12.561
11.0, 22920.01520633879, -45051.99731016127, -12472.27340606134, -22911.432136467953, -639.4387053774244, 0.0, 0.0, 0.0, 0.02, -0.026000000000000002, 1.004, 192.0, 0.0, 0.0, 0.0, 0.0, 0.0, 0.0, 0.0, 0.0, 0.0, 1.6863613925657852E9, 0.0, 2023-06-09 18:43:12.565
12.0, 22917.86943887108, -45051.46086829434, -12477.101382863688, -22923.233857540356, -636.7564960427876, 0.0, 0.0, 0.0, 0.02, -0.026000000000000002, 1.004, 192.0, 0.0, 0.0, 0.0, 0.0, 0.0, 0.0, 0.0, 0.0, 0.0, 1.6863613925697775E9, 0.0, 2023-06-09 18:43:12.569
13.0, 22912.505020201806, -45052.533752028205, -12437.941126577989, -22901.23974099633, -636.7564960427876, 0.0, 0.0, 0.0, 0.02, -0.026000000000000002, 1.004, 192.0, 0.0, 0.0, 0.0, 0.0, 0.0, 0.0, 0.0, 0.0, 0.0, 1.686361392574815E9, 0.0, 2023-06-09 18:43:12.574
14.0, 22908.213485266388, -45053.60663576205, -12470.12763859363, -22895.875322327058, -639.4387053774244, 0.0, 0.0, 0.0, 0.02, -0.026000000000000002, 1.004, 192.0, 0.0, 0.0, 0.0, 0.0, 0.0, 0.0, 0.0, 0.0, 0.0, 1.686361392578814E9, 0.0, 2023-06-09 18:43:12.578
15.0, 22913.041462068733, -45051.99731016127, -12489.439545803016, -22918.405880738006, -638.902263510497, 0.0, 0.0, 0.0, 0.02, -0.018000000000000002, 1.002, 192.0, 0.0, 160.0, 255.0, 112.0, 31.0, 80.0, 0.0, 0.0, 0.0, 1.6863613925828252E9, 0.0, 2023-06-09 18:43:12.582
16.0, 22910.895694601022, -45051.99731016127, -12466.908987392068, -22934.499136745828, -636.2200541758602, 0.0, 0.0, 0.0, 0.02, -0.018000000000000002, 1.002, 192.0, 0.0, 0.0, 0.0, 0.0, 0.0, 0.0, 0.0, 0.0, 0.0, 1.6863613925858326E9, 0.0, 2023-06-09 18:43:12.585
17.0, 22915.72367140337, -45049.85154269356, -12456.716591920449, -22915.18722953644, -636.7564960427876, 0.0, 0.0, 0.0, 0.02, -0.018000000000000002, 1.002, 192.0, 0.0, 0.0, 0.0, 0.0, 0.0, 0.0, 0.0, 0.0, 0.0, 1.6863613925898051E9, 0.0, 2023-06-09 18:43:12.589
18.0, 22918.405880738006, -45050.92442642742, -12473.882731662125, -22904.458392197896, -638.902263510497, 0.0, 0.0, 0.0, 0.02, -0.018000000000000002, 1.002, 192.0, 0.0, 0.0, 0.0, 0.0, 0.0, 0.0, 0.0, 0.0, 0.0, 1.686361392593849E9, 0.0, 2023-06-09 18:43:12.593
19.0, 22920.551648205714, -45050.92442642742, -12469.591196726706, -22917.332997004152, -637.8293797766423, 0.0, 0.0, 0.0, 0.02, -0.018000000000000002, 1.002, 192.0, 0.0, 0.0, 0.0, 0.0, 0.0, 0.0, 0.0, 0.0, 0.0, 1.6863613925978563E9, 0.0, 2023-06-09 18:43:12.597
20.0, 22910.895694601022, -45054.14307762898, -12456.180150053518, -22930.744043677336, -638.3658216435697, 0.0, 0.0, 0.0, 0.02, -0.018000000000000002, 1.002, 192.0, 0.0, 0.0, 0.0, 0.0, 0.0, 0.0, 0.0, 0.0, 0.0, 1.6863613926028297E9, 0.0, 2023-06-09 18:43:12.602
21.0, 22913.041462068733, -45054.67951949591, -12471.200522327486, -22912.505020201806, -637.292937909715, 0.0, 0.0, 0.0, 0.02, -0.018000000000000002, 1.002, 192.0, 0.0, 0.0, 0.0, 0.0, 0.0, 0.0, 0.0, 0.0, 0.0, 1.6863613926068563E9, 0.0, 2023-06-09 18:43:12.606
22.0, 22914.650787669518, -45054.14307762898, -12472.809847928269, -22898.557531661696, -636.7564960427876, 0.0, 0.0, 0.0, 0.02, -0.018000000000000002, 1.002, 192.0, 0.0, 0.0, 0.0, 0.0, 0.0, 0.0, 0.0, 0.0, 0.0, 1.686361392609902E9, 0.0, 2023-06-09 18:43:12.609
23.0, 22916.2601132703, -45053.07019389513, -12457.253033787374, -22900.166857262477, -637.292937909715, 0.0, 0.0, 0.0, 0.02, -0.018000000000000002, 1.002, 192.0, 0.0, 0.0, 0.0, 0.0, 0.0, 0.0, 0.0, 0.0, 0.0, 1.6863613926138847E9, 0.0, 2023-06-09 18:43:12.613
24.0, 22915.18722953644, -45054.14307762898, -12453.497940718884, -22917.86943887108, -637.8293797766423, 0.0, 0.0, 0.0, 0.02, -0.018000000000000002, 1.002, 192.0, 0.0, 0.0, 0.0, 0.0, 0.0, 0.0, 0.0, 0.0, 0.0, 1.686361392617828E9, 0.0, 2023-06-09 18:43:12.617
25.0, 22911.432136467953, -45056.28884509669, -12477.637824730613, -22909.28636900024, -637.8293797766423, 0.0, 0.0, 0.0, 0.02, -0.02, 1.002, 192.0, 0.0, 160.0, 255.0, 96.0, 31.0, 80.0, 0.0, 0.0, 0.0, 1.6863613926219015E9, 0.0, 2023-06-09 18:43:12.621
26.0, 22906.06771779868, -45057.898170697474, -12467.981871125921, -22899.093973528623, -638.3658216435697, 0.0, 0.0, 0.0, 0.02, -0.02, 1.002, 192.0, 0.0, 0.0, 0.0, 0.0, 0.0, 0.0, 0.0, 0.0, 0.0, 1.68636139262599E9, 0.0, 2023-06-09 18:43:12.625
27.0, 22908.213485266388, -45054.14307762898, -12467.981871125921, -22905.53127593175, -638.902263510497, 0.0, 0.0, 0.0, 0.02, -0.02, 1.002, 192.0, 0.0, 0.0, 0.0, 0.0, 0.0, 0.0, 0.0, 0.0, 0.0, 1.6863613926309085E9, 0.0, 2023-06-09 18:43:12.630
28.0, 22904.994834064822, -45056.82528696362, -12463.153894323576, -22924.30674127421, -637.8293797766423, 0.0, 0.0, 0.0, 0.02, -0.02, 1.002, 192.0, 0.0, 0.0, 0.0, 0.0, 0.0, 0.0, 0.0, 0.0, 0.0, 1.686361392634894E9, 0.0, 2023-06-09 18:43:12.634
29.0, 22906.604159665603, -45054.67951949591, -12471.736964194413, -22920.551648205714, -638.3658216435697, 0.0, 0.0, 0.0, 0.02, -0.02, 1.002, 192.0, 0.0, 0.0, 0.0, 0.0, 0.0, 0.0, 0.0, 0.0, 0.0, 1.6863613926378777E9, 0.0, 2023-06-09 18:43:12.637
30.0, 22908.749927133314, -45053.60663576205, -12459.398801255084, -22904.458392197896, -636.2200541758602, 0.0, 0.0, 0.0, 0.02, -0.02, 1.002, 192.0, 0.0, 0.0, 0.0, 0.0, 0.0, 0.0, 0.0, 0.0, 0.0, 1.686361392641879E9, 0.0, 2023-06-09 18:43:12.641
31.0, 22910.359252734095, -45052.533752028205, -12450.815731384246, -22897.484647927842, -636.2200541758602, 0.0, 0.0, 0.0, 0.02, -0.02, 1.002, 192.0, 0.0, 0.0, 0.0, 0.0, 0.0, 0.0, 0.0, 0.0, 0.0, 1.6863613926458805E9, 0.0, 2023-06-09 18:43:12.645
32.0, 22910.895694601022, -45055.21596136284, -12464.226778057431, -22911.968578334876, -637.8293797766423, 0.0, 0.0, 0.0, 0.02, -0.02, 1.002, 192.0, 0.0, 0.0, 0.0, 0.0, 0.0, 0.0, 0.0, 0.0, 0.0, 1.6863613926498833E9, 0.0, 2023-06-09 18:43:12.649
33.0, 22911.968578334876, -45052.533752028205, -12467.981871125921, -22914.650787669518, -636.7564960427876, 0.0, 0.0, 0.0, 0.02, -0.02, 1.002, 192.0, 0.0, 0.0, 0.0, 0.0, 0.0, 0.0, 0.0, 0.0, 0.0, 1.6863613926539893E9, 0.0, 2023-06-09 18:43:12.653
34.0, 22907.67704339946, -45050.38798456049, -12466.908987392068, -22896.94820606091, -636.7564960427876, 0.0, 0.0, 0.0, 0.02, -0.02, 1.002, 192.0, 0.0, 0.0, 0.0, 0.0, 0.0, 0.0, 0.0, 0.0, 0.0, 1.6863613926579213E9, 0.0, 2023-06-09 18:43:12.657
35.0, 22909.28636900024, -45054.14307762898, -12465.299661791287, -22898.021089794765, -635.1471704420055, 0.0, 0.0, 0.0, 0.022, -0.028, 1.006, 192.0, 0.0, 176.0, 255.0, 32.0, 31.0, 112.0, 0.0, 0.0, 0.0, 1.6863613926629272E9, 0.0, 2023-06-09 18:43:12.662
36.0, 22908.213485266388, -45056.28884509669, -12465.299661791287, -22916.2601132703, -636.2200541758602, 0.0, 0.0, 0.0, 0.022, -0.028, 1.006, 192.0, 0.0, 0.0, 0.0, 0.0, 0.0, 0.0, 0.0, 0.0, 0.0, 1.6863613926659005E9, 0.0, 2023-06-09 18:43:12.665
37.0, 22908.749927133314, -45056.28884509669, -12472.809847928269, -22924.30674127421, -637.292937909715, 0.0, 0.0, 0.0, 0.022, -0.028, 1.006, 192.0, 0.0, 0.0, 0.0, 0.0, 0.0, 0.0, 0.0, 0.0, 0.0, 1.6863613926700003E9, 0.0, 2023-06-09 18:43:12.670
38.0, 22910.895694601022, -45051.46086829434, -12463.690336190502, -22903.385508464038, -636.2200541758602, 0.0, 0.0, 0.0, 0.022, -0.028, 1.006, 192.0, 0.0, 0.0, 0.0, 0.0, 0.0, 0.0, 0.0, 0.0, 0.0, 1.686361392674006E9, 0.0, 2023-06-09 18:43:12.674
39.0, 22910.895694601022, -45051.46086829434, -12470.66408046056, -22898.557531661696, -637.292937909715, 0.0, 0.0, 0.0, 0.022, -0.028, 1.006, 192.0, 0.0, 0.0, 0.0, 0.0, 0.0, 0.0, 0.0, 0.0, 0.0, 1.6863613926779664E9, 0.0, 2023-06-09 18:43:12.677
40.0, 22912.505020201806, -45047.16933335892, -12478.174266597543, -22911.968578334876, -636.7564960427876, 0.0, 0.0, 0.0, 0.022, -0.028, 1.006, 192.0, 0.0, 0.0, 0.0, 0.0, 0.0, 0.0, 0.0, 0.0, 0.0, 1.686361392681945E9, 0.0, 2023-06-09 18:43:12.681
41.0, 22903.92195033097, -45048.24221709278, -12450.279289517319, -22921.62453193957, -637.8293797766423, 0.0, 0.0, 0.0, 0.022, -0.028, 1.006, 192.0, 0.0, 0.0, 0.0, 0.0, 0.0, 0.0, 0.0, 0.0, 0.0, 1.686361392686004E9, 0.0, 2023-06-09 18:43:12.686
42.0, 22914.650787669518, -45051.46086829434, -12458.32591752123, -22897.484647927842, -639.4387053774244, 0.0, 0.0, 0.0, 0.022, -0.028, 1.006, 192.0, 0.0, 0.0, 0.0, 0.0, 0.0, 0.0, 0.0, 0.0, 0.0, 1.6863613926909957E9, 0.0, 2023-06-09 18:43:12.690
43.0, 22918.942322604933, -45052.533752028205, -12467.981871125921, -22889.438019923928, -638.902263510497, 0.0, 0.0, 0.0, 0.022, -0.028, 1.006, 192.0, 0.0, 0.0, 0.0, 0.0, 0.0, 0.0, 0.0, 0.0, 0.0, 1.686361392693986E9, 0.0, 2023-06-09 18:43:12.693
44.0, 22905.53127593175, -45055.21596136284, -12461.544568722793, -22896.411764193985, -639.4387053774244, 0.0, 0.0, 0.0, 0.022, -0.028, 1.006, 192.0, 0.0, 0.0, 0.0, 0.0, 0.0, 0.0, 0.0, 0.0, 0.0, 1.6863613926969655E9, 0.0, 2023-06-09 18:43:12.696
45.0, 22905.53127593175, -45054.14307762898, -12474.41917352905, -22917.332997004152, -638.3658216435697, 0.0, 0.0, 0.0, 0.022, -0.026000000000000002, 1.006, 192.0, 0.0, 176.0, 255.0, 48.0, 31.0, 112.0, 0.0, 0.0, 0.0, 1.6863613927020268E9, 0.0, 2023-06-09 18:43:12.702
46.0, 22903.92195033097, -45053.60663576205, -12472.809847928269, -22906.06771779868, -637.292937909715, 0.0, 0.0, 0.0, 0.022, -0.026000000000000002, 1.006, 192.0, 0.0, 0.0, 0.0, 0.0, 0.0, 0.0, 0.0, 0.0, 0.0, 1.686361392706024E9, 0.0, 2023-06-09 18:43:12.706
47.0, 22906.604159665603, -45056.28884509669, -12476.028499129832, -22893.729554859347, -637.8293797766423, 0.0, 0.0, 0.0, 0.022, -0.026000000000000002, 1.006, 192.0, 0.0, 0.0, 0.0, 0.0, 0.0, 0.0, 0.0, 0.0, 0.0, 1.68636139271001E9, 0.0, 2023-06-09 18:43:12.710
48.0, 22907.67704339946, -45056.82528696362, -12475.492057262905, -22903.92195033097, -637.8293797766423, 0.0, 0.0, 0.0, 0.022, -0.026000000000000002, 1.006, 192.0, 0.0, 0.0, 0.0, 0.0, 0.0, 0.0, 0.0, 0.0, 0.0, 1.6863613927140207E9, 0.0, 2023-06-09 18:43:12.714
49.0, 22908.749927133314, -45056.28884509669, -12459.398801255084, -22922.697415673425, -637.8293797766423, 0.0, 0.0, 0.0, 0.022, -0.026000000000000002, 1.006, 192.0, 0.0, 0.0, 0.0, 0.0, 0.0, 0.0, 0.0, 0.0, 0.0, 1.68636139271808E9, 0.0, 2023-06-09 18:43:12.718
50.0, 22908.213485266388, -45051.99731016127, -12458.32591752123, -22912.505020201806, -637.8293797766423, 0.0, 0.0, 0.0, 0.022, -0.026000000000000002, 1.006, 192.0, 0.0, 0.0, 0.0, 0.0, 0.0, 0.0, 0.0, 0.0, 0.0, 1.6863613927210808E9, 0.0, 2023-06-09 18:43:12.721
51.0, 22905.53127593175, -45049.315100826636, -12458.862359388157, -22900.166857262477, -636.7564960427876, 0.0, 0.0, 0.0, 0.022, -0.026000000000000002, 1.006, 192.0, 0.0, 0.0, 0.0, 0.0, 0.0, 0.0, 0.0, 0.0, 0.0, 1.6863613927261198E9, 0.0, 2023-06-09 18:43:12.726
52.0, 22907.67704339946, -45053.60663576205, -12467.445429258994, -22895.33888046013, -638.3658216435697, 0.0, 0.0, 0.0, 0.022, -0.026000000000000002, 1.006, 192.0, 0.0, 0.0, 0.0, 0.0, 0.0, 0.0, 0.0, 0.0, 0.0, 1.68636139273006E9, 0.0, 2023-06-09 18:43:12.730
53.0, 22904.994834064822, -45056.28884509669, -12467.981871125921, -22909.28636900024, -637.8293797766423, 0.0, 0.0, 0.0, 0.022, -0.026000000000000002, 1.006, 192.0, 0.0, 0.0, 0.0, 0.0, 0.0, 0.0, 0.0, 0.0, 0.0, 1.6863613927340753E9, 0.0, 2023-06-09 18:43:12.734
54.0, 22899.63041539555, -45057.36172883055, -12451.8886151181, -22915.72367140337, -636.7564960427876, 0.0, 0.0, 0.0, 0.026000000000000002, -0.028, 1.004, 192.0, 0.0, 208.0, 255.0, 32.0, 31.0, 96.0, 0.0, 0.0, 0.0, 1.686361392738057E9, 0.0, 2023-06-09 18:43:12.738
55.0, 22903.385508464038, -45059.50749629826, -12473.346289795194, -22900.166857262477, -636.7564960427876, 0.0, 0.0, 0.0, 0.026000000000000002, -0.028, 1.004, 192.0, 0.0, 0.0, 0.0, 0.0, 0.0, 0.0, 0.0, 0.0, 0.0, 1.686361392742067E9, 0.0, 2023-06-09 18:43:12.742
56.0, 22906.604159665603, -45056.82528696362, -12470.66408046056, -22904.458392197896, -636.2200541758602, 0.0, 0.0, 0.0, 0.026000000000000002, -0.028, 1.004, 192.0, 0.0, 0.0, 0.0, 0.0, 0.0, 0.0, 0.0, 0.0, 0.0, 1.6863613927460775E9, 0.0, 2023-06-09 18:43:12.746
57.0, 22906.604159665603, -45053.60663576205, -12461.544568722793, -22928.59827620963, -637.292937909715, 0.0, 0.0, 0.0, 0.026000000000000002, -0.028, 1.004, 192.0, 0.0, 0.0, 0.0, 0.0, 0.0, 0.0, 0.0, 0.0, 0.0, 1.686361392749038E9, 0.0, 2023-06-09 18:43:12.749
58.0, 22902.849066597115, -45056.28884509669, -12467.445429258994, -22932.889811145047, -637.8293797766423, 0.0, 0.0, 0.0, 0.026000000000000002, -0.028, 1.004, 192.0, 0.0, 0.0, 0.0, 0.0, 0.0, 0.0, 0.0, 0.0, 0.0, 1.6863613927540548E9, 0.0, 2023-06-09 18:43:12.754
59.0, 22903.92195033097, -45054.14307762898, -12461.008126855868, -22914.114345802587, -638.3658216435697, 0.0, 0.0, 0.0, 0.026000000000000002, -0.028, 1.004, 192.0, 0.0, 0.0, 0.0, 0.0, 0.0, 0.0, 0.0, 0.0, 0.0, 1.6863613927581153E9, 0.0, 2023-06-09 18:43:12.758
60.0, 22908.213485266388, -45054.67951949591, -12453.497940718884, -22916.2601132703, -638.902263510497, 0.0, 0.0, 0.0, 0.026000000000000002, -0.028, 1.004, 192.0, 0.0, 0.0, 0.0, 0.0, 0.0, 0.0, 0.0, 0.0, 0.0, 1.6863613927621849E9, 0.0, 2023-06-09 18:43:12.762
61.0, 22903.92195033097, -45058.97105443133, -12461.008126855868, -22936.10846234661, -639.4387053774244, 0.0, 0.0, 0.0, 0.026000000000000002, -0.028, 1.004, 192.0, 0.0, 0.0, 0.0, 0.0, 0.0, 0.0, 0.0, 0.0, 0.0, 1.6863613927660868E9, 0.0, 2023-06-09 18:43:12.766
62.0, 22896.94820606091, -45056.28884509669, -12454.570824452738, -22951.128834620577, -639.4387053774244, 0.0, 0.0, 0.0, 0.026000000000000002, -0.028, 1.004, 192.0, 0.0, 0.0, 0.0, 0.0, 0.0, 0.0, 0.0, 0.0, 0.0, 1.6863613927701037E9, 0.0, 2023-06-09 18:43:12.770
63.0, 22898.557531661696, -45056.28884509669, -12467.981871125921, -22933.426253011974, -636.7564960427876, 0.0, 0.0, 0.0, 0.026000000000000002, -0.028, 1.004, 192.0, 0.0, 0.0, 0.0, 0.0, 0.0, 0.0, 0.0, 0.0, 0.0, 1.6863613927741218E9, 0.0, 2023-06-09 18:43:12.774
64.0, 22899.63041539555, -45058.4346125644, -12472.27340606134, -22920.551648205714, -636.7564960427876, 0.0, 0.0, 0.0, 0.022, -0.026000000000000002, 1.002, 192.0, 0.0, 176.0, 255.0, 48.0, 31.0, 80.0, 0.0, 0.0, 0.0, 1.6863613927771344E9, 0.0, 2023-06-09 18:43:12.777
65.0, 22907.67704339946, -45054.14307762898, -12466.37254552514, -22929.671159943482, -636.7564960427876, 0.0, 0.0, 0.0, 0.022, -0.026000000000000002, 1.002, 192.0, 0.0, 0.0, 0.0, 0.0, 0.0, 0.0, 0.0, 0.0, 0.0, 1.686361392781114E9, 0.0, 2023-06-09 18:43:12.781
66.0, 22904.994834064822, -45053.60663576205, -12465.299661791287, -22939.327113548174, -637.8293797766423, 0.0, 0.0, 0.0, 0.022, -0.026000000000000002, 1.002, 192.0, 0.0, 0.0, 0.0, 0.0, 0.0, 0.0, 0.0, 0.0, 0.0, 1.6863613927851253E9, 0.0, 2023-06-09 18:43:12.785
67.0, 22898.557531661696, -45055.752403229766, -12451.8886151181, -22920.01520633879, -638.902263510497, 0.0, 0.0, 0.0, 0.022, -0.026000000000000002, 1.002, 192.0, 0.0, 0.0, 0.0, 0.0, 0.0, 0.0, 0.0, 0.0, 0.0, 1.6863613927901497E9, 0.0, 2023-06-09 18:43:12.790
68.0, 22905.53127593175, -45057.36172883055, -12455.643708186593, -22911.968578334876, -637.8293797766423, 0.0, 0.0, 0.0, 0.022, -0.026000000000000002, 1.002, 192.0, 0.0, 0.0, 0.0, 0.0, 0.0, 0.0, 0.0, 0.0, 0.0, 1.6863613927941751E9, 0.0, 2023-06-09 18:43:12.794
69.0, 22908.749927133314, -45058.97105443133, -12453.497940718884, -22921.088090072644, -637.8293797766423, 0.0, 0.0, 0.0, 0.022, -0.026000000000000002, 1.002, 192.0, 0.0, 0.0, 0.0, 0.0, 0.0, 0.0, 0.0, 0.0, 0.0, 1.6863613927981777E9, 0.0, 2023-06-09 18:43:12.798
70.0, 22901.23974099633, -45057.898170697474, -12462.617452456649, -22934.499136745828, -639.9751472443518, 0.0, 0.0, 0.0, 0.022, -0.026000000000000002, 1.002, 192.0, 0.0, 0.0, 0.0, 0.0, 0.0, 0.0, 0.0, 0.0, 0.0, 1.6863613928012104E9, 0.0, 2023-06-09 18:43:12.801
71.0, 22902.849066597115, -45057.898170697474, -12470.12763859363, -22921.62453193957, -637.8293797766423, 0.0, 0.0, 0.0, 0.022, -0.026000000000000002, 1.002, 192.0, 0.0, 0.0, 0.0, 0.0, 0.0, 0.0, 0.0, 0.0, 0.0, 1.6863613928051996E9, 0.0, 2023-06-09 18:43:12.805
72.0, 22910.895694601022, -45053.60663576205, -12460.471684988937, -22911.432136467953, -636.7564960427876, 0.0, 0.0, 0.0, 0.022, -0.026000000000000002, 1.002, 192.0, 0.0, 0.0, 0.0, 0.0, 0.0, 0.0, 0.0, 0.0, 0.0, 1.6863613928091977E9, 0.0, 2023-06-09 18:43:12.809
73.0, 22905.53127593175, -45055.752403229766, -12453.497940718884, -22914.114345802587, -637.8293797766423, 0.0, 0.0, 0.0, 0.022, -0.026000000000000002, 1.002, 192.0, 0.0, 0.0, 0.0, 0.0, 0.0, 0.0, 0.0, 0.0, 0.0, 1.686361392814154E9, 0.0, 2023-06-09 18:43:12.814
74.0, 22903.92195033097, -45055.752403229766, -12461.008126855868, -22933.9626948789, -638.902263510497, 0.0, 0.0, 0.0, 0.028, -0.028, 1.0, 192.0, 0.0, 224.0, 255.0, 32.0, 31.0, 64.0, 0.0, 0.0, 0.0, 1.686361392818176E9, 0.0, 2023-06-09 18:43:12.818
75.0, 22902.312624730184, -45053.07019389513, -12461.008126855868, -22930.744043677336, -636.7564960427876, 0.0, 0.0, 0.0, 0.028, -0.028, 1.0, 192.0, 0.0, 0.0, 0.0, 0.0, 0.0, 0.0, 0.0, 0.0, 0.0, 1.686361392822334E9, 0.0, 2023-06-09 18:43:12.822
76.0, 22907.67704339946, -45053.07019389513, -12453.497940718884, -22917.332997004152, -636.2200541758602, 0.0, 0.0, 0.0, 0.028, -0.028, 1.0, 192.0, 0.0, 0.0, 0.0, 0.0, 0.0, 0.0, 0.0, 0.0, 0.0, 1.6863613928252811E9, 0.0, 2023-06-09 18:43:12.825
77.0, 22902.312624730184, -45057.898170697474, -12459.398801255084, -22921.62453193957, -636.7564960427876, 0.0, 0.0, 0.0, 0.028, -0.028, 1.0, 192.0, 0.0, 0.0, 0.0, 0.0, 0.0, 0.0, 0.0, 0.0, 0.0, 1.6863613928292944E9, 0.0, 2023-06-09 18:43:12.829
78.0, 22903.92195033097, -45055.21596136284, -12474.41917352905, -22944.155090350523, -637.8293797766423, 0.0, 0.0, 0.0, 0.028, -0.028, 1.0, 192.0, 0.0, 0.0, 0.0, 0.0, 0.0, 0.0, 0.0, 0.0, 0.0, 1.6863613928332741E9, 0.0, 2023-06-09 18:43:12.833
79.0, 22908.749927133314, -45053.60663576205, -12458.32591752123, -22935.572020479685, -636.7564960427876, 0.0, 0.0, 0.0, 0.028, -0.028, 1.0, 192.0, 0.0, 0.0, 0.0, 0.0, 0.0, 0.0, 0.0, 0.0, 0.0, 1.686361392837361E9, 0.0, 2023-06-09 18:43:12.837
80.0, 22896.94820606091, -45053.60663576205, -12452.961498851955, -22910.359252734095, -635.1471704420055, 0.0, 0.0, 0.0, 0.028, -0.028, 1.0, 192.0, 0.0, 0.0, 0.0, 0.0, 0.0, 0.0, 0.0, 0.0, 0.0, 1.6863613928413072E9, 0.0, 2023-06-09 18:43:12.841
81.0, 22895.33888046013, -45056.82528696362, -12439.014010311843, -22908.213485266388, -636.7564960427876, 0.0, 0.0, 0.0, 0.028, -0.028, 1.0, 192.0, 0.0, 0.0, 0.0, 0.0, 0.0, 0.0, 0.0, 0.0, 0.0, 1.6863613928462763E9, 0.0, 2023-06-09 18:43:12.846
82.0, 22907.140601532534, -45056.28884509669, -12457.789475654303, -22922.697415673425, -637.8293797766423, 0.0, 0.0, 0.0, 0.028, -0.028, 1.0, 192.0, 0.0, 0.0, 0.0, 0.0, 0.0, 0.0, 0.0, 0.0, 0.0, 1.6863613928502893E9, 0.0, 2023-06-09 18:43:12.850
83.0, 22904.994834064822, -45052.533752028205, -12471.200522327486, -22935.035578612755, -638.902263510497, 0.0, 0.0, 0.0, 0.028, -0.028, 1.0, 192.0, 0.0, 0.0, 0.0, 0.0, 0.0, 0.0, 0.0, 0.0, 0.0, 1.6863613928533099E9, 0.0, 2023-06-09 18:43:12.853
84.0, 22898.557531661696, -45054.14307762898, -12467.445429258994, -22923.233857540356, -638.902263510497, 0.0, 0.0, 0.0, 0.026000000000000002, -0.022, 1.0, 192.0, 0.0, 208.0, 255.0, 80.0, 31.0, 64.0, 0.0, 0.0, 0.0, 1.6863613928572927E9, 0.0, 2023-06-09 18:43:12.857
85.0, 22896.94820606091, -45057.898170697474, -12472.809847928269, -22913.57790393566, -637.8293797766423, 0.0, 0.0, 0.0, 0.026000000000000002, -0.022, 1.0, 192.0, 0.0, 0.0, 0.0, 0.0, 0.0, 0.0, 0.0, 0.0, 0.0, 1.6863613928613403E9, 0.0, 2023-06-09 18:43:12.861
86.0, 22900.703299129404, -45057.898170697474, -12459.398801255084, -22917.332997004152, -637.8293797766423, 0.0, 0.0, 0.0, 0.026000000000000002, -0.022, 1.0, 192.0, 0.0, 0.0, 0.0, 0.0, 0.0, 0.0, 0.0, 0.0, 0.0, 1.6863613928653114E9, 0.0, 2023-06-09 18:43:12.865
87.0, 22900.166857262477, -45054.14307762898, -12432.576707908716, -22929.671159943482, -637.292937909715, 0.0, 0.0, 0.0, 0.026000000000000002, -0.022, 1.0, 192.0, 0.0, 0.0, 0.0, 0.0, 0.0, 0.0, 0.0, 0.0, 0.0, 1.686361392869291E9, 0.0, 2023-06-09 18:43:12.869
88.0, 22897.484647927842, -45055.752403229766, -12445.9877545819, -22917.86943887108, -636.7564960427876, 0.0, 0.0, 0.0, 0.026000000000000002, -0.022, 1.0, 192.0, 0.0, 0.0, 0.0, 0.0, 0.0, 0.0, 0.0, 0.0, 0.0, 1.6863613928742976E9, 0.0, 2023-06-09 18:43:12.874
89.0, 22901.23974099633, -45056.82528696362, -12459.398801255084, -22913.57790393566, -636.7564960427876, 0.0, 0.0, 0.0, 0.026000000000000002, -0.022, 1.0, 192.0, 0.0, 0.0, 0.0, 0.0, 0.0, 0.0, 0.0, 0.0, 0.0, 1.6863613928782709E9, 0.0, 2023-06-09 18:43:12.878
90.0, 22891.58378739164, -45052.533752028205, -12452.961498851955, -22921.62453193957, -637.8293797766423, 0.0, 0.0, 0.0, 0.026000000000000002, -0.022, 1.0, 192.0, 0.0, 0.0, 0.0, 0.0, 0.0, 0.0, 0.0, 0.0, 0.0, 1.6863613928813424E9, 0.0, 2023-06-09 18:43:12.881
91.0, 22892.120229258566, -45054.67951949591, -12475.492057262905, -22931.280485544266, -637.8293797766423, 0.0, 0.0, 0.0, 0.026000000000000002, -0.022, 1.0, 192.0, 0.0, 0.0, 0.0, 0.0, 0.0, 0.0, 0.0, 0.0, 0.0, 1.686361392885353E9, 0.0, 2023-06-09 18:43:12.885
92.0, 22896.411764193985, -45061.116821899035, -12461.544568722793, -22917.332997004152, -636.7564960427876, 0.0, 0.0, 0.0, 0.026000000000000002, -0.022, 1.0, 192.0, 0.0, 0.0, 0.0, 0.0, 0.0, 0.0, 0.0, 0.0, 0.0, 1.686361392889314E9, 0.0, 2023-06-09 18:43:12.889
93.0, 22895.875322327058, -45058.4346125644, -12444.914870848046, -22909.28636900024, -638.902263510497, 0.0, 0.0, 0.0, 0.026000000000000002, -0.022, 1.0, 192.0, 0.0, 208.0, 255.0, 80.0, 31.0, 64.0, 0.0, 0.0, 0.0, 1.6863613928933356E9, 0.0, 2023-06-09 18:43:12.893
94.0, 22897.484647927842, -45055.21596136284, -12447.060638315756, -22917.332997004152, -637.292937909715, 0.0, 0.0, 0.0, 0.026000000000000002, -0.022, 1.0, 192.0, 0.0, 0.0, 0.0, 0.0, 0.0, 0.0, 0.0, 0.0, 0.0, 1.6863613928973064E9, 0.0, 2023-06-09 18:43:12.897
95.0, 22903.92195033097, -45055.752403229766, -12470.12763859363, -22929.671159943482, -636.7564960427876, 0.0, 0.0, 0.0, 0.026000000000000002, -0.022, 1.0, 192.0, 0.0, 0.0, 0.0, 0.0, 0.0, 0.0, 0.0, 0.0, 0.0, 1.6863613929022803E9, 0.0, 2023-06-09 18:43:12.902
96.0, 22901.23974099633, -45051.99731016127, -12464.763219924356, -22921.62453193957, -633.5378448412234, 0.0, 0.0, 0.0, 0.026000000000000002, -0.022, 1.0, 192.0, 0.0, 0.0, 0.0, 0.0, 0.0, 0.0, 0.0, 0.0, 0.0, 1.6863613929063847E9, 0.0, 2023-06-09 18:43:12.906
97.0, 22889.438019923928, -45051.46086829434, -12442.769103380337, -22914.114345802587, -635.1471704420055, 0.0, 0.0, 0.0, 0.026000000000000002, -0.022, 1.0, 192.0, 0.0, 0.0, 0.0, 0.0, 0.0, 0.0, 0.0, 0.0, 0.0, 1.6863613929094017E9, 0.0, 2023-06-09 18:43:12.909
98.0, 22884.073601254655, -45058.97105443133, -12454.570824452738, -22922.697415673425, -638.902263510497, 0.0, 0.0, 0.0, 0.026000000000000002, -0.022, 1.0, 192.0, 0.0, 0.0, 0.0, 0.0, 0.0, 0.0, 0.0, 0.0, 0.0, 1.686361392913341E9, 0.0, 2023-06-09 18:43:12.913
99.0, 22891.58378739164, -45062.18970563289, -12458.32591752123, -22935.035578612755, -637.8293797766423, 0.0, 0.0, 0.0, 0.026000000000000002, -0.022, 1.0, 192.0, 0.0, 0.0, 0.0, 0.0, 0.0, 0.0, 0.0, 0.0, 0.0, 1.6863613929173715E9, 0.0, 2023-06-09 18:43:12.917
100.0, 22894.8024385932, -45056.82528696362, -12455.107266319665, -22926.988950608844, -637.8293797766423, 0.0, 0.0, 0.0, 0.026000000000000002, -0.022, 1.0, 192.0, 0.0, 0.0, 0.0, 0.0, 0.0, 0.0, 0.0, 0.0, 0.0, 1.6863613929214222E9, 0.0, 2023-06-09 18:43:12.921
101.0, 22890.510903657785, -45053.60663576205, -12462.081010589722, -22904.994834064822, -636.2200541758602, 0.0, 0.0, 0.0, 0.026000000000000002, -0.022, 1.0, 192.0, 0.0, 0.0, 0.0, 0.0, 0.0, 0.0, 0.0, 0.0, 0.0, 1.6863613929253807E9, 0.0, 2023-06-09 18:43:12.925
102.0, 22893.19311299242, -45055.21596136284, -12462.617452456649, -22903.92195033097, -636.7564960427876, 0.0, 0.0, 0.0, 0.026000000000000002, -0.022, 1.0, 192.0, 0.0, 0.0, 0.0, 0.0, 0.0, 0.0, 0.0, 0.0, 0.0, 1.6863613929293864E9, 0.0, 2023-06-09 18:43:12.929
103.0, 22900.703299129404, -45055.752403229766, -12457.253033787374, -22925.91606687499, -638.3658216435697, 0.0, 0.0, 0.0, 0.028, -0.026000000000000002, 0.996, 192.0, 0.0, 224.0, 255.0, 48.0, 31.0, 32.0, 0.0, 0.0, 0.0, 1.68636139293444E9, 0.0, 2023-06-09 18:43:12.934
104.0, 22893.19311299242, -45055.21596136284, -12455.643708186593, -22930.744043677336, -636.2200541758602, 0.0, 0.0, 0.0, 0.028, -0.026000000000000002, 0.996, 192.0, 0.0, 0.0, 0.0, 0.0, 0.0, 0.0, 0.0, 0.0, 0.0, 1.6863613929374115E9, 0.0, 2023-06-09 18:43:12.937
105.0, 22889.97446179086, -45055.21596136284, -12451.8886151181, -22913.57790393566, -636.2200541758602, 0.0, 0.0, 0.0, 0.028, -0.026000000000000002, 0.996, 192.0, 0.0, 0.0, 0.0, 0.0, 0.0, 0.0, 0.0, 0.0, 0.0, 1.6863613929413793E9, 0.0, 2023-06-09 18:43:12.941
106.0, 22891.047345524712, -45056.82528696362, -12448.133522049611, -22910.895694601022, -635.1471704420055, 0.0, 0.0, 0.0, 0.028, -0.026000000000000002, 0.996, 192.0, 0.0, 0.0, 0.0, 0.0, 0.0, 0.0, 0.0, 0.0, 0.0, 1.6863613929454613E9, 0.0, 2023-06-09 18:43:12.945
107.0, 22896.411764193985, -45056.28884509669, -12452.961498851955, -22923.233857540356, -636.2200541758602, 0.0, 0.0, 0.0, 0.028, -0.026000000000000002, 0.996, 192.0, 0.0, 0.0, 0.0, 0.0, 0.0, 0.0, 0.0, 0.0, 0.0, 1.686361392949444E9, 0.0, 2023-06-09 18:43:12.949
108.0, 22895.875322327058, -45054.14307762898, -12469.591196726706, -22933.426253011974, -637.8293797766423, 0.0, 0.0, 0.0, 0.028, -0.026000000000000002, 0.996, 192.0, 0.0, 0.0, 0.0, 0.0, 0.0, 0.0, 0.0, 0.0, 0.0, 1.6863613929534492E9, 0.0, 2023-06-09 18:43:12.953
109.0, 22894.265996726277, -45052.533752028205, -12465.299661791287, -22915.18722953644, -636.2200541758602, 0.0, 0.0, 0.0, 0.028, -0.026000000000000002, 0.996, 192.0, 0.0, 0.0, 0.0, 0.0, 0.0, 0.0, 0.0, 0.0, 0.0, 1.686361392957445E9, 0.0, 2023-06-09 18:43:12.957
110.0, 22893.19311299242, -45054.14307762898, -12459.398801255084, -22901.776182863257, -636.7564960427876, 0.0, 0.0, 0.0, 0.028, -0.026000000000000002, 0.996, 192.0, 0.0, 0.0, 0.0, 0.0, 0.0, 0.0, 0.0, 0.0, 0.0, 1.6863613929615328E9, 0.0, 2023-06-09 18:43:12.961
111.0, 22889.438019923928, -45055.21596136284, -12456.716591920449, -22914.650787669518, -638.902263510497, 0.0, 0.0, 0.0, 0.028, -0.026000000000000002, 0.996, 192.0, 0.0, 0.0, 0.0, 0.0, 0.0, 0.0, 0.0, 0.0, 0.0, 1.68636139296446E9, 0.0, 2023-06-09 18:43:12.964
112.0, 22891.58378739164, -45055.752403229766, -12459.398801255084, -22926.988950608844, -639.9751472443518, 0.0, 0.0, 0.0, 0.028, -0.026000000000000002, 0.996, 192.0, 0.0, 0.0, 0.0, 0.0, 0.0, 0.0, 0.0, 0.0, 0.0, 1.686361392969428E9, 0.0, 2023-06-09 18:43:12.969
113.0, 22893.729554859347, -45055.21596136284, -12446.524196448827, -22914.114345802587, -638.3658216435697, 0.0, 0.0, 0.0, 0.026000000000000002, -0.03, 0.994, 192.0, 0.0, 208.0, 255.0, 16.0, 31.0, 16.0, 0.0, 0.0, 0.0, 1.686361392973468E9, 0.0, 2023-06-09 18:43:12.973
114.0, 22893.19311299242, -45056.82528696362, -12450.279289517319, -22906.604159665603, -637.8293797766423, 0.0, 0.0, 0.0, 0.026000000000000002, -0.03, 0.994, 192.0, 0.0, 0.0, 0.0, 0.0, 0.0, 0.0, 0.0, 0.0, 0.0, 1.686361392977474E9, 0.0, 2023-06-09 18:43:12.977
115.0, 22891.58378739164, -45056.82528696362, -12448.669963916536, -22911.968578334876, -637.8293797766423, 0.0, 0.0, 0.0, 0.026000000000000002, -0.03, 0.994, 192.0, 0.0, 0.0, 0.0, 0.0, 0.0, 0.0, 0.0, 0.0, 0.0, 1.6863613929815247E9, 0.0, 2023-06-09 18:43:12.981
116.0, 22897.484647927842, -45055.752403229766, -12462.081010589722, -22926.988950608844, -636.7564960427876, 0.0, 0.0, 0.0, 0.026000000000000002, -0.03, 0.994, 192.0, 0.0, 0.0, 0.0, 0.0, 0.0, 0.0, 0.0, 0.0, 0.0, 1.6863613929854672E9, 0.0, 2023-06-09 18:43:12.985
117.0, 22892.120229258566, -45055.752403229766, -12459.398801255084, -22920.551648205714, -635.6836123089329, 0.0, 0.0, 0.0, 0.026000000000000002, -0.03, 0.994, 192.0, 0.0, 0.0, 0.0, 0.0, 0.0, 0.0, 0.0, 0.0, 0.0, 1.6863613929894629E9, 0.0, 2023-06-09 18:43:12.989
118.0, 22892.120229258566, -45053.60663576205, -12470.12763859363, -22910.895694601022, -636.7564960427876, 0.0, 0.0, 0.0, 0.026000000000000002, -0.03, 0.994, 192.0, 0.0, 0.0, 0.0, 0.0, 0.0, 0.0, 0.0, 0.0, 0.0, 1.6863613929924903E9, 0.0, 2023-06-09 18:43:12.992
119.0, 22899.093973528623, -45053.60663576205, -12454.570824452738, -22913.57790393566, -638.902263510497, 0.0, 0.0, 0.0, 0.026000000000000002, -0.03, 0.994, 192.0, 0.0, 0.0, 0.0, 0.0, 0.0, 0.0, 0.0, 0.0, 0.0, 1.6863613929965675E9, 0.0, 2023-06-09 18:43:12.996
120.0, 22891.047345524712, -45055.21596136284, -12451.352173251174, -22935.035578612755, -638.3658216435697, 0.0, 0.0, 0.0, 0.026000000000000002, -0.03, 0.994, 192.0, 0.0, 0.0, 0.0, 0.0, 0.0, 0.0, 0.0, 0.0, 0.0, 1.6863613930015385E9, 0.0, 2023-06-09 18:43:13.001
121.0, 22884.610043121582, -45055.21596136284, -12464.763219924356, -22924.843183141136, -636.7564960427876, 0.0, 0.0, 0.0, 0.026000000000000002, -0.03, 0.994, 192.0, 0.0, 0.0, 0.0, 0.0, 0.0, 0.0, 0.0, 0.0, 0.0, 1.6863613930055408E9, 0.0, 2023-06-09 18:43:13.005
122.0, 22887.29225245622, -45053.60663576205, -12446.524196448827, -22908.749927133314, -637.292937909715, 0.0, 0.0, 0.0, 0.026000000000000002, -0.03, 0.994, 192.0, 0.0, 0.0, 0.0, 0.0, 0.0, 0.0, 0.0, 0.0, 0.0, 1.6863613930095956E9, 0.0, 2023-06-09 18:43:13.009
123.0, 22888.901578057004, -45052.533752028205, -12457.253033787374, -22915.18722953644, -639.4387053774244, 0.0, 0.0, 0.0, 0.026000000000000002, -0.026000000000000002, 0.996, 192.0, 0.0, 208.0, 255.0, 48.0, 31.0, 32.0, 0.0, 0.0, 0.0, 1.6863613930135562E9, 0.0, 2023-06-09 18:43:13.013
124.0, 22887.828694323147, -45057.36172883055, -12447.060638315756, -22930.207601810413, -639.4387053774244, 0.0, 0.0, 0.0, 0.026000000000000002, -0.026000000000000002, 0.996, 192.0, 0.0, 0.0, 0.0, 0.0, 0.0, 0.0, 0.0, 0.0, 0.0, 1.686361393017546E9, 0.0, 2023-06-09 18:43:13.017
125.0, 22888.365136190074, -45059.50749629826, -12447.59708018268, -22923.77029940728, -637.8293797766423, 0.0, 0.0, 0.0, 0.026000000000000002, -0.026000000000000002, 0.996, 192.0, 0.0, 0.0, 0.0, 0.0, 0.0, 0.0, 0.0, 0.0, 0.0, 1.6863613930205488E9, 0.0, 2023-06-09 18:43:13.020
126.0, 22891.047345524712, -45053.60663576205, -12461.544568722793, -22900.166857262477, -637.8293797766423, 0.0, 0.0, 0.0, 0.026000000000000002, -0.026000000000000002, 0.996, 192.0, 0.0, 0.0, 0.0, 0.0, 0.0, 0.0, 0.0, 0.0, 0.0, 1.6863613930255764E9, 0.0, 2023-06-09 18:43:13.025
127.0, 22888.901578057004, -45054.14307762898, -12462.081010589722, -22901.23974099633, -637.292937909715, 0.0, 0.0, 0.0, 0.026000000000000002, -0.026000000000000002, 0.996, 192.0, 0.0, 0.0, 0.0, 0.0, 0.0, 0.0, 0.0, 0.0, 0.0, 1.6863613930295653E9, 0.0, 2023-06-09 18:43:13.029
128.0, 22891.58378739164, -45056.82528696362, -12462.617452456649, -22911.968578334876, -637.8293797766423, 0.0, 0.0, 0.0, 0.026000000000000002, -0.026000000000000002, 0.996, 192.0, 0.0, 0.0, 0.0, 0.0, 0.0, 0.0, 0.0, 0.0, 0.0, 1.6863613930335681E9, 0.0, 2023-06-09 18:43:13.033
129.0, 22899.63041539555, -45054.14307762898, -12451.352173251174, -22913.57790393566, -637.8293797766423, 0.0, 0.0, 0.0, 0.026000000000000002, -0.026000000000000002, 0.996, 192.0, 0.0, 0.0, 0.0, 0.0, 0.0, 0.0, 0.0, 0.0, 0.0, 1.6863613930375955E9, 0.0, 2023-06-09 18:43:13.037
130.0, 22894.8024385932, -45052.533752028205, -12450.279289517319, -22901.776182863257, -637.292937909715, 0.0, 0.0, 0.0, 0.026000000000000002, -0.026000000000000002, 0.996, 192.0, 0.0, 0.0, 0.0, 0.0, 0.0, 0.0, 0.0, 0.0, 0.0, 1.6863613930415647E9, 0.0, 2023-06-09 18:43:13.041
131.0, 22879.782066319236, -45053.60663576205, -12456.716591920449, -22899.093973528623, -638.902263510497, 0.0, 0.0, 0.0, 0.026000000000000002, -0.026000000000000002, 0.996, 192.0, 0.0, 0.0, 0.0, 0.0, 0.0, 0.0, 0.0, 0.0, 0.0, 1.6863613930455852E9, 0.0, 2023-06-09 18:43:13.045
132.0, 22883.0007175208, -45055.752403229766, -12451.352173251174, -22909.28636900024, -638.902263510497, 0.0, 0.0, 0.0, 0.026000000000000002, -0.026000000000000002, 0.996, 192.0, 0.0, 0.0, 0.0, 0.0, 0.0, 0.0, 0.0, 0.0, 0.0, 1.6863613930485988E9, 0.0, 2023-06-09 18:43:13.048
133.0, 22889.97446179086, -45055.752403229766, -12458.32591752123, -22921.62453193957, -637.292937909715, 0.0, 0.0, 0.0, 0.024, -0.024, 0.998, 192.0, 0.0, 192.0, 255.0, 64.0, 31.0, 48.0, 0.0, 0.0, 0.0, 1.686361393052667E9, 0.0, 2023-06-09 18:43:13.052
134.0, 22892.120229258566, -45054.14307762898, -12449.742847650392, -22901.776182863257, -636.2200541758602, 0.0, 0.0, 0.0, 0.024, -0.024, 0.998, 192.0, 0.0, 0.0, 0.0, 0.0, 0.0, 0.0, 0.0, 0.0, 0.0, 1.6863613930576088E9, 0.0, 2023-06-09 18:43:13.057
135.0, 22892.656671125493, -45052.533752028205, -12461.544568722793, -22896.94820606091, -637.8293797766423, 0.0, 0.0, 0.0, 0.024, -0.024, 0.998, 192.0, 0.0, 0.0, 0.0, 0.0, 0.0, 0.0, 0.0, 0.0, 0.0, 1.686361393061572E9, 0.0, 2023-06-09 18:43:13.061
136.0, 22893.19311299242, -45053.60663576205, -12466.37254552514, -22903.385508464038, -638.902263510497, 0.0, 0.0, 0.0, 0.024, -0.024, 0.998, 192.0, 0.0, 0.0, 0.0, 0.0, 0.0, 0.0, 0.0, 0.0, 0.0, 1.686361393065658E9, 0.0, 2023-06-09 18:43:13.065
137.0, 22888.901578057004, -45054.67951949591, -12461.008126855868, -22916.2601132703, -637.8293797766423, 0.0, 0.0, 0.0, 0.024, -0.024, 0.998, 192.0, 0.0, 0.0, 0.0, 0.0, 0.0, 0.0, 0.0, 0.0, 0.0, 1.686361393068649E9, 0.0, 2023-06-09 18:43:13.068
138.0, 22880.85495005309, -45054.14307762898, -12454.570824452738, -22905.53127593175, -636.2200541758602, 0.0, 0.0, 0.0, 0.024, -0.024, 0.998, 192.0, 0.0, 0.0, 0.0, 0.0, 0.0, 0.0, 0.0, 0.0, 0.0, 1.686361393072628E9, 0.0, 2023-06-09 18:43:13.072
139.0, 22882.464275653874, -45049.85154269356, -12457.253033787374, -22895.875322327058, -635.1471704420055, 0.0, 0.0, 0.0, 0.024, -0.024, 0.998, 192.0, 0.0, 0.0, 0.0, 0.0, 0.0, 0.0, 0.0, 0.0, 0.0, 1.686361393076634E9, 0.0, 2023-06-09 18:43:13.076
140.0, 22879.782066319236, -45048.77865895971, -12455.107266319665, -22901.776182863257, -636.7564960427876, 0.0, 0.0, 0.0, 0.024, -0.024, 0.998, 192.0, 0.0, 0.0, 0.0, 0.0, 0.0, 0.0, 0.0, 0.0, 0.0, 1.6863613930806904E9, 0.0, 2023-06-09 18:43:13.080
141.0, 22882.464275653874, -45054.14307762898, -12440.623335912627, -22917.332997004152, -638.3658216435697, 0.0, 0.0, 0.0, 0.024, -0.024, 0.998, 192.0, 0.0, 0.0, 0.0, 0.0, 0.0, 0.0, 0.0, 0.0, 0.0, 1.686361393085722E9, 0.0, 2023-06-09 18:43:13.085
142.0, 22880.85495005309, -45055.21596136284, -12451.352173251174, -22906.604159665603, -637.8293797766423, 0.0, 0.0, 0.0, 0.02, -0.02, 1.0, 192.0, 0.0, 160.0, 255.0, 96.0, 31.0, 64.0, 0.0, 0.0, 0.0, 1.6863613930896647E9, 0.0, 2023-06-09 18:43:13.089
143.0, 22882.464275653874, -45056.82528696362, -12471.736964194413, -22895.875322327058, -637.292937909715, 0.0, 0.0, 0.0, 0.02, -0.02, 1.0, 192.0, 0.0, 0.0, 0.0, 0.0, 0.0, 0.0, 0.0, 0.0, 0.0, 1.6863613930936677E9, 0.0, 2023-06-09 18:43:13.093
144.0, 22884.073601254655, -45056.28884509669, -12452.961498851955, -22898.021089794765, -636.7564960427876, 0.0, 0.0, 0.0, 0.02, -0.02, 1.0, 192.0, 0.0, 0.0, 0.0, 0.0, 0.0, 0.0, 0.0, 0.0, 0.0, 1.6863613930967104E9, 0.0, 2023-06-09 18:43:13.096
145.0, 22891.58378739164, -45051.46086829434, -12448.133522049611, -22915.72367140337, -636.7564960427876, 0.0, 0.0, 0.0, 0.02, -0.02, 1.0, 192.0, 0.0, 0.0, 0.0, 0.0, 0.0, 0.0, 0.0, 0.0, 0.0, 1.6863613931006558E9, 0.0, 2023-06-09 18:43:13.100
146.0, 22887.828694323147, -45050.38798456049, -12459.398801255084, -22912.505020201806, -637.8293797766423, 0.0, 0.0, 0.0, 0.02, -0.02, 1.0, 192.0, 0.0, 0.0, 0.0, 0.0, 0.0, 0.0, 0.0, 0.0, 0.0, 1.686361393104728E9, 0.0, 2023-06-09 18:43:13.104
147.0, 22880.318508186167, -45051.46086829434, -12458.862359388157, -22893.729554859347, -635.6836123089329, 0.0, 0.0, 0.0, 0.02, -0.02, 1.0, 192.0, 0.0, 0.0, 0.0, 0.0, 0.0, 0.0, 0.0, 0.0, 0.0, 1.6863613931087103E9, 0.0, 2023-06-09 18:43:13.108
148.0, 22881.927833786947, -45052.533752028205, -12454.570824452738, -22898.021089794765, -636.7564960427876, 0.0, 0.0, 0.0, 0.02, -0.02, 1.0, 192.0, 0.0, 0.0, 0.0, 0.0, 0.0, 0.0, 0.0, 0.0, 0.0, 1.6863613931137068E9, 0.0, 2023-06-09 18:43:13.113
149.0, 22879.782066319236, -45053.07019389513, -12447.59708018268, -22917.86943887108, -636.7564960427876, 0.0, 0.0, 0.0, 0.02, -0.02, 1.0, 192.0, 0.0, 0.0, 0.0, 0.0, 0.0, 0.0, 0.0, 0.0, 0.0, 1.6863613931176925E9, 0.0, 2023-06-09 18:43:13.117
150.0, 22880.318508186167, -45055.21596136284, -12459.935243122012, -22923.233857540356, -636.2200541758602, 0.0, 0.0, 0.0, 0.02, -0.02, 1.0, 192.0, 0.0, 0.0, 0.0, 0.0, 0.0, 0.0, 0.0, 0.0, 0.0, 1.6863613931217315E9, 0.0, 2023-06-09 18:43:13.121
151.0, 22886.219368722363, -45053.60663576205, -12466.37254552514, -22902.312624730184, -636.7564960427876, 0.0, 0.0, 0.0, 0.02, -0.02, 1.0, 192.0, 0.0, 0.0, 0.0, 0.0, 0.0, 0.0, 0.0, 0.0, 0.0, 1.6863613931247473E9, 0.0, 2023-06-09 18:43:13.124
152.0, 22883.0007175208, -45052.533752028205, -12449.742847650392, -22897.484647927842, -637.8293797766423, 0.0, 0.0, 0.0, 0.024, -0.02, 1.004, 192.0, 0.0, 192.0, 255.0, 96.0, 31.0, 96.0, 0.0, 0.0, 0.0, 1.6863613931287253E9, 0.0, 2023-06-09 18:43:13.128
153.0, 22884.610043121582, -45054.14307762898, -12454.03438258581, -22909.82281086717, -638.3658216435697, 0.0, 0.0, 0.0, 0.024, -0.02, 1.004, 192.0, 0.0, 0.0, 0.0, 0.0, 0.0, 0.0, 0.0, 0.0, 0.0, 1.6863613931327195E9, 0.0, 2023-06-09 18:43:13.132
154.0, 22884.073601254655, -45056.28884509669, -12448.133522049611, -22923.77029940728, -637.8293797766423, 0.0, 0.0, 0.0, 0.024, -0.02, 1.004, 192.0, 0.0, 0.0, 0.0, 0.0, 0.0, 0.0, 0.0, 0.0, 0.0, 1.6863613931367404E9, 0.0, 2023-06-09 18:43:13.136
155.0, 22880.318508186167, -45055.21596136284, -12450.279289517319, -22911.432136467953, -639.4387053774244, 0.0, 0.0, 0.0, 0.024, -0.02, 1.004, 192.0, 0.0, 0.0, 0.0, 0.0, 0.0, 0.0, 0.0, 0.0, 0.0, 1.6863613931407526E9, 0.0, 2023-06-09 18:43:13.140
156.0, 22880.85495005309, -45056.28884509669, -12456.716591920449, -22908.213485266388, -639.9751472443518, 0.0, 0.0, 0.0, 0.024, -0.02, 1.004, 192.0, 0.0, 0.0, 0.0, 0.0, 0.0, 0.0, 0.0, 0.0, 0.0, 1.686361393145774E9, 0.0, 2023-06-09 18:43:13.145
157.0, 22885.68292685544, -45053.60663576205, -12464.763219924356, -22919.47876447186, -638.902263510497, 0.0, 0.0, 0.0, 0.024, -0.02, 1.004, 192.0, 0.0, 0.0, 0.0, 0.0, 0.0, 0.0, 0.0, 0.0, 0.0, 1.686361393148748E9, 0.0, 2023-06-09 18:43:13.148
158.0, 22881.39139192002, -45053.60663576205, -12448.669963916536, -22931.280485544266, -637.8293797766423, 0.0, 0.0, 0.0, 0.024, -0.02, 1.004, 192.0, 0.0, 0.0, 0.0, 0.0, 0.0, 0.0, 0.0, 0.0, 0.0, 1.6863613931527965E9, 0.0, 2023-06-09 18:43:13.152
159.0, 22877.636298851525, -45053.60663576205, -12450.279289517319, -22912.505020201806, -636.2200541758602, 0.0, 0.0, 0.0, 0.024, -0.02, 1.004, 192.0, 0.0, 0.0, 0.0, 0.0, 0.0, 0.0, 0.0, 0.0, 0.0, 1.6863613931568255E9, 0.0, 2023-06-09 18:43:13.156
160.0, 22879.24562445231, -45053.60663576205, -12459.398801255084, -22906.06771779868, -638.3658216435697, 0.0, 0.0, 0.0, 0.024, -0.02, 1.004, 192.0, 0.0, 0.0, 0.0, 0.0, 0.0, 0.0, 0.0, 0.0, 0.0, 1.6863613931607623E9, 0.0, 2023-06-09 18:43:13.160
161.0, 22878.709182585382, -45055.752403229766, -12450.279289517319, -22913.57790393566, -637.8293797766423, 0.0, 0.0, 0.0, 0.024, -0.02, 1.004, 192.0, 0.0, 0.0, 0.0, 0.0, 0.0, 0.0, 0.0, 0.0, 0.0, 1.6863613931647892E9, 0.0, 2023-06-09 18:43:13.164
162.0, 22873.881205783036, -45056.28884509669, -12462.617452456649, -22930.207601810413, -638.902263510497, 0.0, 0.0, 0.0, 0.026000000000000002, -0.026000000000000002, 1.002, 192.0, 0.0, 208.0, 255.0, 48.0, 31.0, 80.0, 0.0, 0.0, 0.0, 1.6863613931688092E9, 0.0, 2023-06-09 18:43:13.168
163.0, 22880.318508186167, -45055.21596136284, -12453.497940718884, -22918.942322604933, -638.3658216435697, 0.0, 0.0, 0.0, 0.026000000000000002, -0.026000000000000002, 1.002, 192.0, 0.0, 0.0, 0.0, 0.0, 0.0, 0.0, 0.0, 0.0, 0.0, 1.6863613931738403E9, 0.0, 2023-06-09 18:43:13.173
164.0, 22881.39139192002, -45055.21596136284, -12459.935243122012, -22909.82281086717, -638.3658216435697, 0.0, 0.0, 0.0, 0.026000000000000002, -0.026000000000000002, 1.002, 192.0, 0.0, 0.0, 0.0, 0.0, 0.0, 0.0, 0.0, 0.0, 0.0, 1.6863613931768184E9, 0.0, 2023-06-09 18:43:13.176
165.0, 22882.464275653874, -45053.60663576205, -12441.159777779554, -22909.28636900024, -637.8293797766423, 0.0, 0.0, 0.0, 0.026000000000000002, -0.026000000000000002, 1.002, 192.0, 0.0, 0.0, 0.0, 0.0, 0.0, 0.0, 0.0, 0.0, 0.0, 1.6863613931808045E9, 0.0, 2023-06-09 18:43:13.180
166.0, 22887.828694323147, -45055.21596136284, -12450.279289517319, -22924.30674127421, -638.902263510497, 0.0, 0.0, 0.0, 0.026000000000000002, -0.026000000000000002, 1.002, 192.0, 0.0, 0.0, 0.0, 0.0, 0.0, 0.0, 0.0, 0.0, 0.0, 1.686361393184835E9, 0.0, 2023-06-09 18:43:13.184
167.0, 22882.464275653874, -45056.28884509669, -12466.37254552514, -22920.551648205714, -636.7564960427876, 0.0, 0.0, 0.0, 0.026000000000000002, -0.026000000000000002, 1.002, 192.0, 0.0, 0.0, 0.0, 0.0, 0.0, 0.0, 0.0, 0.0, 0.0, 1.6863613931888084E9, 0.0, 2023-06-09 18:43:13.188
168.0, 22870.66255458147, -45052.533752028205, -12467.445429258994, -22905.53127593175, -637.8293797766423, 0.0, 0.0, 0.0, 0.026000000000000002, -0.026000000000000002, 1.002, 192.0, 0.0, 0.0, 0.0, 0.0, 0.0, 0.0, 0.0, 0.0, 0.0, 1.686361393192837E9, 0.0, 2023-06-09 18:43:13.192
169.0, 22871.1989964484, -45054.14307762898, -12463.153894323576, -22902.849066597115, -636.7564960427876, 0.0, 0.0, 0.0, 0.026000000000000002, -0.026000000000000002, 1.002, 192.0, 0.0, 0.0, 0.0, 0.0, 0.0, 0.0, 0.0, 0.0, 0.0, 1.6863613931968677E9, 0.0, 2023-06-09 18:43:13.196
170.0, 22877.636298851525, -45055.21596136284, -12460.471684988937, -22922.697415673425, -637.8293797766423, 0.0, 0.0, 0.0, 0.026000000000000002, -0.026000000000000002, 1.002, 192.0, 0.0, 0.0, 0.0, 0.0, 0.0, 0.0, 0.0, 0.0, 0.0, 1.686361393201859E9, 0.0, 2023-06-09 18:43:13.201
171.0, 22880.85495005309, -45057.898170697474, -12447.59708018268, -22920.551648205714, -636.7564960427876, 0.0, 0.0, 0.0, 0.026000000000000002, -0.026000000000000002, 1.002, 192.0, 0.0, 0.0, 0.0, 0.0, 0.0, 0.0, 0.0, 0.0, 0.0, 1.686361393204868E9, 0.0, 2023-06-09 18:43:13.204
172.0, 22876.56341511767, -45054.14307762898, -12461.544568722793, -22901.776182863257, -636.7564960427876, 0.0, 0.0, 0.0, 0.024, -0.024, 0.998, 192.0, 0.0, 192.0, 255.0, 64.0, 31.0, 48.0, 0.0, 0.0, 0.0, 1.6863613932088776E9, 0.0, 2023-06-09 18:43:13.208
173.0, 22877.0998569846, -45052.533752028205, -12452.42505698503, -22902.849066597115, -637.8293797766423, 0.0, 0.0, 0.0, 0.024, -0.024, 0.998, 192.0, 0.0, 0.0, 0.0, 0.0, 0.0, 0.0, 0.0, 0.0, 0.0, 1.6863613932128932E9, 0.0, 2023-06-09 18:43:13.212
174.0, 22876.026973250744, -45056.28884509669, -12455.643708186593, -22925.379625008063, -636.2200541758602, 0.0, 0.0, 0.0, 0.024, -0.024, 0.998, 192.0, 0.0, 0.0, 0.0, 0.0, 0.0, 0.0, 0.0, 0.0, 0.0, 1.6863613932168891E9, 0.0, 2023-06-09 18:43:13.216
175.0, 22877.0998569846, -45055.21596136284, -12451.8886151181, -22924.843183141136, -636.7564960427876, 0.0, 0.0, 0.0, 0.024, -0.024, 0.998, 192.0, 0.0, 0.0, 0.0, 0.0, 0.0, 0.0, 0.0, 0.0, 0.0, 1.6863613932208972E9, 0.0, 2023-06-09 18:43:13.220
176.0, 22877.0998569846, -45054.14307762898, -12450.279289517319, -22909.82281086717, -638.3658216435697, 0.0, 0.0, 0.0, 0.024, -0.024, 0.998, 192.0, 0.0, 0.0, 0.0, 0.0, 0.0, 0.0, 0.0, 0.0, 0.0, 1.6863613932248976E9, 0.0, 2023-06-09 18:43:13.224
177.0, 22875.490531383817, -45053.60663576205, -12456.716591920449, -22904.994834064822, -635.1471704420055, 0.0, 0.0, 0.0, 0.024, -0.024, 0.998, 192.0, 0.0, 0.0, 0.0, 0.0, 0.0, 0.0, 0.0, 0.0, 0.0, 1.6863613932289128E9, 0.0, 2023-06-09 18:43:13.228
178.0, 22881.39139192002, -45055.21596136284, -12453.497940718884, -22916.796555137225, -636.2200541758602, 0.0, 0.0, 0.0, 0.024, -0.024, 0.998, 192.0, 0.0, 0.0, 0.0, 0.0, 0.0, 0.0, 0.0, 0.0, 0.0, 1.686361393232928E9, 0.0, 2023-06-09 18:43:13.232
179.0, 22883.0007175208, -45055.21596136284, -12458.32591752123, -22931.280485544266, -636.2200541758602, 0.0, 0.0, 0.0, 0.024, -0.024, 0.998, 192.0, 0.0, 0.0, 0.0, 0.0, 0.0, 0.0, 0.0, 0.0, 0.0, 1.686361393236938E9, 0.0, 2023-06-09 18:43:13.236
180.0, 22881.39139192002, -45055.21596136284, -12470.12763859363, -22920.01520633879, -636.2200541758602, 0.0, 0.0, 0.0, 0.024, -0.024, 0.998, 192.0, 0.0, 0.0, 0.0, 0.0, 0.0, 0.0, 0.0, 0.0, 0.0, 1.6863613932409146E9, 0.0, 2023-06-09 18:43:13.240
181.0, 22879.24562445231, -45056.82528696362, -12459.398801255084, -22907.67704339946, -637.292937909715, 0.0, 0.0, 0.0, 0.022, -0.024, 1.002, 192.0, 0.0, 176.0, 255.0, 64.0, 31.0, 80.0, 0.0, 0.0, 0.0, 1.6863613932449496E9, 0.0, 2023-06-09 18:43:13.244
182.0, 22873.34476391611, -45058.4346125644, -12450.815731384246, -22913.57790393566, -637.8293797766423, 0.0, 0.0, 0.0, 0.022, -0.024, 1.002, 192.0, 0.0, 0.0, 0.0, 0.0, 0.0, 0.0, 0.0, 0.0, 0.0, 1.6863613932489429E9, 0.0, 2023-06-09 18:43:13.248
183.0, 22873.34476391611, -45058.97105443133, -12456.180150053518, -22929.671159943482, -635.6836123089329, 0.0, 0.0, 0.0, 0.022, -0.024, 1.002, 192.0, 0.0, 0.0, 0.0, 0.0, 0.0, 0.0, 0.0, 0.0, 0.0, 1.6863613932529576E9, 0.0, 2023-06-09 18:43:13.252
184.0, 22873.34476391611, -45055.752403229766, -12447.060638315756, -22916.2601132703, -636.2200541758602, 0.0, 0.0, 0.0, 0.022, -0.024, 1.002, 192.0, 0.0, 0.0, 0.0, 0.0, 0.0, 0.0, 0.0, 0.0, 0.0, 1.6863613932559135E9, 0.0, 2023-06-09 18:43:13.255
185.0, 22873.34476391611, -45056.28884509669, -12458.862359388157, -22906.06771779868, -637.8293797766423, 0.0, 0.0, 0.0, 0.022, -0.024, 1.002, 192.0, 0.0, 0.0, 0.0, 0.0, 0.0, 0.0, 0.0, 0.0, 0.0, 1.686361393259964E9, 0.0, 2023-06-09 18:43:13.259
186.0, 22875.490531383817, -45057.898170697474, -12445.9877545819, -22911.968578334876, -637.8293797766423, 0.0, 0.0, 0.0, 0.022, -0.024, 1.002, 192.0, 0.0, 0.0, 0.0, 0.0, 0.0, 0.0, 0.0, 0.0, 0.0, 1.6863613932639291E9, 0.0, 2023-06-09 18:43:13.263
187.0, 22876.56341511767, -45056.82528696362, -12442.232661513408, -22928.59827620963, -637.8293797766423, 0.0, 0.0, 0.0, 0.022, -0.024, 1.002, 192.0, 0.0, 0.0, 0.0, 0.0, 0.0, 0.0, 0.0, 0.0, 0.0, 1.686361393268932E9, 0.0, 2023-06-09 18:43:13.268
188.0, 22872.271880182252, -45053.60663576205, -12461.544568722793, -22926.988950608844, -636.7564960427876, 0.0, 0.0, 0.0, 0.022, -0.024, 1.002, 192.0, 0.0, 0.0, 0.0, 0.0, 0.0, 0.0, 0.0, 0.0, 0.0, 1.6863613932730007E9, 0.0, 2023-06-09 18:43:13.273
189.0, 22875.490531383817, -45054.14307762898, -12463.153894323576, -22915.18722953644, -636.7564960427876, 0.0, 0.0, 0.0, 0.022, -0.024, 1.002, 192.0, 0.0, 0.0, 0.0, 0.0, 0.0, 0.0, 0.0, 0.0, 0.0, 1.6863613932770157E9, 0.0, 2023-06-09 18:43:13.277
190.0, 22875.490531383817, -45055.752403229766, -12458.32591752123, -22914.114345802587, -636.7564960427876, 0.0, 0.0, 0.0, 0.022, -0.024, 1.002, 192.0, 0.0, 0.0, 0.0, 0.0, 0.0, 0.0, 0.0, 0.0, 0.0, 1.686361393281001E9, 0.0, 2023-06-09 18:43:13.281
191.0, 22874.417647649963, -45057.898170697474, -12469.054754859775, -22923.77029940728, -638.3658216435697, 0.0, 0.0, 0.0, 0.024, -0.028, 1.004, 192.0, 0.0, 192.0, 255.0, 32.0, 31.0, 96.0, 0.0, 0.0, 0.0, 1.6863613932839868E9, 0.0, 2023-06-09 18:43:13.283
192.0, 22878.172740718455, -45056.28884509669, -12473.346289795194, -22920.01520633879, -638.902263510497, 0.0, 0.0, 0.0, 0.024, -0.028, 1.004, 192.0, 0.0, 0.0, 0.0, 0.0, 0.0, 0.0, 0.0, 0.0, 0.0, 1.6863613932880719E9, 0.0, 2023-06-09 18:43:13.288
193.0, 22878.709182585382, -45054.67951949591, -12442.232661513408, -22908.749927133314, -638.3658216435697, 0.0, 0.0, 0.0, 0.024, -0.028, 1.004, 192.0, 0.0, 0.0, 0.0, 0.0, 0.0, 0.0, 0.0, 0.0, 0.0, 1.6863613932920983E9, 0.0, 2023-06-09 18:43:13.292
194.0, 22877.0998569846, -45057.898170697474, -12446.524196448827, -22906.604159665603, -637.8293797766423, 0.0, 0.0, 0.0, 0.024, -0.028, 1.004, 192.0, 0.0, 0.0, 0.0, 0.0, 0.0, 0.0, 0.0, 0.0, 0.0, 1.6863613932960773E9, 0.0, 2023-06-09 18:43:13.296
195.0, 22873.34476391611, -45063.26258936675, -12451.8886151181, -22920.01520633879, -637.8293797766423, 0.0, 0.0, 0.0, 0.024, -0.028, 1.004, 192.0, 0.0, 0.0, 0.0, 0.0, 0.0, 0.0, 0.0, 0.0, 0.0, 1.6863613933011253E9, 0.0, 2023-06-09 18:43:13.301
196.0, 22869.053228980687, -45061.65326376597, -12446.524196448827, -22914.114345802587, -638.902263510497, 0.0, 0.0, 0.0, 0.024, -0.028, 1.004, 192.0, 0.0, 0.0, 0.0, 0.0, 0.0, 0.0, 0.0, 0.0, 0.0, 1.6863613933051205E9, 0.0, 2023-06-09 18:43:13.305
197.0, 22872.808322049183, -45056.28884509669, -12453.497940718884, -22908.749927133314, -637.8293797766423, 0.0, 0.0, 0.0, 0.024, -0.028, 1.004, 192.0, 0.0, 0.0, 0.0, 0.0, 0.0, 0.0, 0.0, 0.0, 0.0, 1.686361393309095E9, 0.0, 2023-06-09 18:43:13.309
198.0, 22871.73543831533, -45056.82528696362, -12454.03438258581, -22905.53127593175, -636.2200541758602, 0.0, 0.0, 0.0, 0.024, -0.028, 1.004, 192.0, 0.0, 0.0, 0.0, 0.0, 0.0, 0.0, 0.0, 0.0, 0.0, 1.6863613933121176E9, 0.0, 2023-06-09 18:43:13.312
199.0, 22867.443903379906, -45057.898170697474, -12439.550452178773, -22918.942322604933, -637.292937909715, 0.0, 0.0, 0.0, 0.024, -0.028, 1.004, 192.0, 0.0, 0.0, 0.0, 0.0, 0.0, 0.0, 0.0, 0.0, 0.0, 1.6863613933161204E9, 0.0, 2023-06-09 18:43:13.316
200.0, 22873.34476391611, -45059.50749629826, -12456.716591920449, -22923.233857540356, -639.4387053774244, 0.0, 0.0, 0.0, 0.024, -0.028, 1.004, 192.0, 0.0, 0.0, 0.0, 0.0, 0.0, 0.0, 0.0, 0.0, 0.0, 1.686361393320125E9, 0.0, 2023-06-09 18:43:13.320
201.0, 22876.56341511767, -45055.21596136284, -12460.471684988937, -22903.385508464038, -638.902263510497, 0.0, 0.0, 0.0, 0.026000000000000002, -0.03, 0.998, 192.0, 0.0, 208.0, 255.0, 16.0, 31.0, 48.0, 0.0, 0.0, 0.0, 1.686361393324122E9, 0.0, 2023-06-09 18:43:13.324
202.0, 22873.881205783036, -45051.99731016127, -12447.060638315756, -22899.093973528623, -637.8293797766423, 0.0, 0.0, 0.0, 0.026000000000000002, -0.03, 0.998, 192.0, 0.0, 0.0, 0.0, 0.0, 0.0, 0.0, 0.0, 0.0, 0.0, 1.68636139332913E9, 0.0, 2023-06-09 18:43:13.329
203.0, 22871.73543831533, -45054.67951949591, -12472.809847928269, -22910.895694601022, -637.8293797766423, 0.0, 0.0, 0.0, 0.026000000000000002, -0.03, 0.998, 192.0, 0.0, 0.0, 0.0, 0.0, 0.0, 0.0, 0.0, 0.0, 0.0, 1.6863613933331287E9, 0.0, 2023-06-09 18:43:13.333
204.0, 22872.808322049183, -45056.82528696362, -12452.961498851955, -22919.47876447186, -638.3658216435697, 0.0, 0.0, 0.0, 0.026000000000000002, -0.03, 0.998, 192.0, 0.0, 0.0, 0.0, 0.0, 0.0, 0.0, 0.0, 0.0, 0.0, 1.686361393337114E9, 0.0, 2023-06-09 18:43:13.337
205.0, 22873.34476391611, -45054.67951949591, -12457.253033787374, -22901.23974099633, -636.7564960427876, 0.0, 0.0, 0.0, 0.026000000000000002, -0.03, 0.998, 192.0, 0.0, 0.0, 0.0, 0.0, 0.0, 0.0, 0.0, 0.0, 0.0, 1.6863613933401217E9, 0.0, 2023-06-09 18:43:13.340
206.0, 22870.126112714544, -45055.21596136284, -12455.107266319665, -22894.8024385932, -635.1471704420055, 0.0, 0.0, 0.0, 0.026000000000000002, -0.03, 0.998, 192.0, 0.0, 0.0, 0.0, 0.0, 0.0, 0.0, 0.0, 0.0, 0.0, 1.6863613933440833E9, 0.0, 2023-06-09 18:43:13.344
207.0, 22867.443903379906, -45057.36172883055, -12454.03438258581, -22901.776182863257, -636.7564960427876, 0.0, 0.0, 0.0, 0.026000000000000002, -0.03, 0.998, 192.0, 0.0, 0.0, 0.0, 0.0, 0.0, 0.0, 0.0, 0.0, 0.0, 1.6863613933480837E9, 0.0, 2023-06-09 18:43:13.348
208.0, 22866.371019646052, -45057.898170697474, -12462.081010589722, -22913.57790393566, -637.8293797766423, 0.0, 0.0, 0.0, 0.026000000000000002, -0.03, 0.998, 192.0, 0.0, 0.0, 0.0, 0.0, 0.0, 0.0, 0.0, 0.0, 0.0, 1.6863613933521323E9, 0.0, 2023-06-09 18:43:13.352
